
X-Axis: Frequency (hz)
Y-Axis: Fourier Amplitude (cm/s)
Number of Data Sets: 4


DATASET #1

Name: FAS H1 (cm/s)
Num Points: 2044
Info: 

X, Y Data:
0.009765625	1.9456414
0.012207031	2.3436382
0.014648438	2.6743352
0.017089844	2.9143512
0.01953125	3.0366182
0.021972656	3.0138724
0.024414062	2.824179
0.026855469	2.4594288
0.029296875	1.9387827
0.03173828	1.3442807
0.034179688	0.97461665
0.036621094	1.3237778
0.0390625	2.0973096
0.041503906	2.9399915
0.043945312	3.730324
0.04638672	4.4183817
0.048828125	4.9890323
0.05126953	5.4552546
0.053710938	5.854775
0.056152344	6.2425036
0.05859375	6.6789656
0.061035156	7.2163277
0.06347656	7.8867087
0.06591797	8.696521
0.068359375	9.627871
0.07080078	10.646234
0.07324219	11.709942
0.075683594	12.777607
0.078125	13.810453
0.080566406	14.770503
0.08300781	15.61936
0.08544922	16.320871
0.087890625	16.849314
0.09033203	17.19815
0.09277344	17.384222
0.095214844	17.442263
0.09765625	17.41193
0.10009766	17.32414
0.10253906	17.194902
0.10498047	17.029797
0.10742188	16.832623
0.10986328	16.609484
0.11230469	16.363121
0.11474609	16.081799
0.1171875	15.73522
0.11962891	15.286787
0.12207031	14.722917
0.12451172	14.083584
0.12695312	13.472727
0.12939453	13.026713
0.13183594	12.844728
0.13427734	12.92854
0.13671875	13.188957
0.13916016	13.507073
0.14160156	13.780822
0.14404297	13.923466
0.14648438	13.844066
0.14892578	13.452782
0.15136719	12.702336
0.1538086	11.633362
0.15625	10.38317
0.1586914	9.133965
0.16113281	8.017907
0.16357422	7.0499287
0.16601562	6.1588435
0.16845703	5.283988
0.17089844	4.4303994
0.17333984	3.6446495
0.17578125	2.9568665
0.17822266	2.354757
0.18066406	1.8558128
0.18310547	1.7380688
0.18554688	2.414505
0.18798828	3.671666
0.19042969	5.0830665
0.1928711	6.317025
0.1953125	7.142978
0.1977539	7.473594
0.20019531	7.3904443
0.20263672	7.11421
0.20507812	6.9239755
0.20751953	7.07435
0.20996094	7.770066
0.21240234	9.149852
0.21484375	11.204348
0.21728516	13.722184
0.21972656	16.347971
0.22216797	18.698544
0.22460938	20.476763
0.22705078	21.550358
0.22949219	21.960697
0.2319336	21.84199
0.234375	21.292385
0.2368164	20.304947
0.23925781	18.828993
0.24169922	16.890852
0.24414062	14.633986
0.24658203	12.224307
0.24902344	9.717544
0.25146484	7.044157
0.25390625	4.1438065
0.25634766	1.366144
0.25878906	2.881551
0.26123047	6.217087
0.26367188	9.654722
0.26611328	13.132837
0.2685547	16.692911
0.2709961	20.378605
0.2734375	24.159916
0.2758789	27.902786
0.2783203	31.438074
0.28076172	34.686512
0.28320312	37.698616
0.28564453	40.52244
0.28808594	43.007835
0.29052734	44.773758
0.29296875	45.406433
0.29541016	44.712166
0.29785156	42.830482
0.30029297	40.16564
0.30273438	37.242355
0.30517578	34.607216
0.3076172	32.788048
0.3100586	32.217476
0.3125	33.10979
0.3149414	35.443512
0.3173828	39.077137
0.31982422	43.80687
0.32226562	49.313557
0.32470703	55.16364
0.32714844	60.94817
0.32958984	66.45028
0.33203125	71.68097
0.33447266	76.728294
0.33691406	81.52969
0.33935547	85.76791
0.34179688	89.004
0.34423828	90.944016
0.3466797	91.60465
0.3491211	91.211044
0.3515625	89.90202
0.3540039	87.534966
0.3564453	83.810905
0.35888672	78.601135
0.36132812	72.167885
0.36376953	65.09651
0.36621094	58.007
0.36865234	51.28915
0.37109375	45.121044
0.37353516	39.790474
0.37597656	35.969746
0.37841797	34.481705
0.38085938	35.57337
0.38330078	38.543972
0.3857422	42.120537
0.3881836	44.905853
0.390625	45.68528
0.3930664	43.74904
0.3955078	39.10408
0.39794922	32.384956
0.40039062	24.53557
0.40283203	16.647898
0.40527344	10.689063
0.40771484	10.548654
0.41015625	14.923065
0.41259766	19.300953
0.41503906	22.243155
0.41748047	23.796577
0.41992188	24.479776
0.42236328	24.785889
0.4248047	25.116392
0.4272461	25.844814
0.4296875	27.123863
0.4321289	28.744846
0.4345703	30.387465
0.43701172	31.89005
0.43945312	33.294235
0.44189453	34.873035
0.44433594	37.125576
0.44677734	40.51226
0.44921875	45.154827
0.45166016	50.82513
0.45410156	56.93418
0.45654297	62.405876
0.45898438	65.89977
0.46142578	66.48692
0.4638672	64.207855
0.4663086	59.97239
0.46875	54.872784
0.4711914	49.59587
0.4736328	44.50973
0.47607422	40.124065
0.47851562	37.25009
0.48095703	36.668118
0.48339844	38.515606
0.48583984	41.988724
0.48828125	45.92148
0.49072266	49.618496
0.49316406	52.969296
0.49560547	55.839012
0.49804688	57.679054
0.5004883	57.949257
0.5029297	56.745506
0.5053711	54.85147
0.5078125	53.189255
0.5102539	52.180725
0.5126953	51.541
0.5151367	50.707066
0.5175781	49.5642
0.52001953	48.70091
0.52246094	48.71497
0.52490234	49.41352
0.52734375	50.18309
0.52978516	50.842644
0.53222656	51.504333
0.53466797	51.811638
0.5371094	50.95501
0.5395508	48.466324
0.5419922	44.625076
0.5444336	40.091045
0.546875	35.370655
0.5493164	30.699041
0.5517578	26.226194
0.5541992	22.11969
0.5566406	18.61381
0.55908203	16.2502
0.56152344	16.054087
0.56396484	18.766788
0.56640625	23.938135
0.56884766	30.622158
0.57128906	38.143375
0.57373047	46.15794
0.5761719	54.41756
0.5786133	62.46102
0.5810547	69.46727
0.5834961	74.47164
0.5859375	76.851585
0.5883789	76.66039
0.5908203	74.407364
0.5932617	70.45323
0.5957031	64.79364
0.59814453	57.599277
0.60058594	49.815002
0.60302734	42.944523
0.60546875	38.041096
0.60791016	35.013447
0.61035156	33.09755
0.61279297	31.497065
0.6152344	29.436752
0.6176758	26.321217
0.6201172	22.199553
0.6225586	17.906128
0.625	14.438738
0.6274414	11.849328
0.6298828	9.264515
0.6323242	6.740835
0.6347656	6.6896205
0.63720703	9.4210415
0.63964844	12.245191
0.64208984	14.058712
0.64453125	14.514834
0.64697266	13.146909
0.64941406	9.638675
0.65185547	4.375709
0.6542969	2.372708
0.6567383	8.94442
0.6591797	16.119238
0.6616211	23.71285
0.6640625	31.090015
0.6665039	37.416416
0.6689453	42.39966
0.6713867	46.346855
0.6738281	49.404152
0.67626953	51.102947
0.67871094	51.00068
0.68115234	49.523254
0.68359375	47.78666
0.68603516	46.458054
0.68847656	45.094074
0.69091797	42.812454
0.6933594	39.15676
0.6958008	34.1149
0.6982422	27.730684
0.7006836	20.189447
0.703125	12.463501
0.7055664	7.5888357
0.7080078	9.742898
0.7104492	15.077027
0.7128906	21.115032
0.71533203	27.2925
0.71777344	32.667084
0.72021484	36.25004
0.72265625	37.507774
0.72509766	36.418953
0.72753906	33.30272
0.72998047	28.658772
0.7324219	23.040356
0.7348633	16.940317
0.7373047	10.745815
0.7397461	5.232802
0.7421875	5.4457483
0.7446289	11.213288
0.7470703	17.451788
0.7495117	22.985405
0.7519531	27.090267
0.75439453	29.283234
0.75683594	29.554113
0.75927734	28.487556
0.76171875	27.079233
0.76416016	26.354122
0.76660156	27.074068
0.76904297	29.520515
0.7714844	33.3008
0.7739258	37.527893
0.7763672	41.229496
0.7788086	43.58123
0.78125	44.004192
0.7836914	42.267796
0.7861328	38.55441
0.7885742	33.524765
0.7910156	28.591413
0.79345703	26.178095
0.79589844	28.387257
0.79833984	34.71178
0.80078125	43.415844
0.80322266	53.386345
0.80566406	63.962143
0.80810547	74.55272
0.8105469	84.528625
0.8129883	93.16941
0.8154297	99.726234
0.8178711	103.66553
0.8203125	104.84201
0.8227539	103.37746
0.8251953	99.47948
0.8276367	93.49735
0.8300781	86.04847
0.83251953	77.854485
0.83496094	69.40257
0.83740234	60.88532
0.83984375	52.44667
0.84228516	44.297127
0.84472656	36.569813
0.84716797	29.303892
0.8496094	22.740099
0.8520508	17.637331
0.8544922	15.133738
0.8569336	15.63027
0.859375	18.152761
0.8618164	21.652235
0.8642578	25.565447
0.8666992	29.506573
0.8691406	33.113644
0.87158203	35.963787
0.87402344	37.525726
0.87646484	37.377716
0.87890625	35.522488
0.88134766	32.35234
0.88378906	28.30189
0.88623047	23.832968
0.8886719	20.068447
0.8911133	19.065918
0.8935547	21.809006
0.8959961	26.770924
0.8984375	32.236588
0.9008789	37.43316
0.9033203	42.030613
0.9057617	45.506817
0.9082031	47.045197
0.91064453	45.962837
0.91308594	42.07365
0.91552734	35.683365
0.91796875	27.62154
0.92041016	19.702257
0.92285156	15.247173
0.92529297	16.443762
0.9277344	20.58994
0.9301758	25.215086
0.9326172	29.177135
0.9350586	31.341045
0.9375	31.002213
0.9399414	28.511084
0.9423828	25.052135
0.9448242	21.861092
0.9472656	19.618122
0.94970703	18.494957
0.95214844	18.484007
0.95458984	19.507084
0.95703125	21.40182
0.95947266	24.040234
0.96191406	27.62993
0.96435547	32.8615
0.9667969	40.41117
0.9692383	50.10528
0.9716797	60.77312
0.9741211	70.951744
0.9765625	79.73211
0.9790039	87.04853
0.9814453	93.1447
0.9838867	97.76042
0.9863281	100.06138
0.98876953	99.36312
0.99121094	95.67096
0.99365234	89.481636
0.99609375	81.28758
0.99853516	71.50171
1.0009766	60.802452
1.003418	50.30692
1.0058594	41.28934
1.0083008	34.68102
1.0107422	30.669598
1.0131836	28.427513
1.015625	26.262388
1.0180664	22.538252
1.0205078	16.636217
1.0229492	9.123769
1.0253906	1.3260939
1.027832	6.9122195
1.0302734	14.376139
1.0327148	21.386116
1.0351562	27.579851
1.0375977	32.69202
1.0400391	37.01505
1.0424805	41.403786
1.0449219	46.725567
1.0473633	53.128952
1.0498047	59.95243
1.0522461	66.37225
1.0546875	71.90251
1.0571289	76.14736
1.0595703	78.29099
1.0620117	77.27792
1.0644531	72.7362
1.0668945	65.76081
1.0693359	58.730183
1.0717773	53.92696
1.0742188	52.038776
1.0766602	52.536697
1.0791016	55.323513
1.081543	61.005257
1.0839844	69.710625
1.0864258	80.437225
1.0888672	91.50611
1.0913086	101.28673
1.09375	108.70419
1.0961914	113.49245
1.0986328	116.13029
1.1010742	117.39478
1.1035156	117.73634
1.105957	116.96545
1.1083984	114.57602
1.1108398	110.42371
1.1132812	105.15879
1.1157227	100.11117
1.1181641	96.7083
1.1206055	95.68851
1.1230469	96.602936
1.1254883	98.07511
1.1279297	98.602745
1.1303711	97.26756
1.1328125	93.977135
1.1352539	89.227974
1.1376953	83.55273
1.1401367	77.04438
1.1425781	69.47038
1.1450195	60.925426
1.1474609	52.319748
1.1499023	45.108135
1.1523438	40.41944
1.1547852	38.30117
1.1572266	37.61283
1.159668	36.614166
1.1621094	33.929638
1.1645508	29.317324
1.1669922	23.774006
1.1694336	18.944386
1.171875	15.961038
1.1743164	14.5025
1.1767578	13.680063
1.1791992	13.605007
1.1816406	14.619606
1.184082	15.334821
1.1865234	13.346692
1.1889648	7.1438603
1.1914062	3.0601416
1.1938477	15.434616
1.1962891	27.486477
1.1987305	37.1122
1.2011719	43.515873
1.2036133	47.434486
1.2060547	50.573746
1.2084961	54.47405
1.2109375	59.591938
1.2133789	65.309975
1.2158203	70.54348
1.2182617	74.40292
1.2207031	76.75953
1.2231445	78.339645
1.2255859	79.965355
1.2280273	81.51137
1.2304688	81.890854
1.2329102	80.136795
1.2353516	76.27238
1.237793	71.28814
1.2402344	66.548805
1.2426758	63.12675
1.2451172	61.393036
1.2475586	60.94595
1.25	60.815857
1.2524414	59.810593
1.2548828	56.87518
1.2573242	51.391552
1.2597656	43.38979
1.262207	33.510963
1.2646484	22.80585
1.2670898	13.666795
1.2695312	14.829568
1.2719727	26.390923
1.2744141	39.650803
1.2768555	51.16766
1.2792969	59.52932
1.2817383	64.772545
1.2841797	67.78272
1.2866211	69.37748
1.2890625	69.93057
1.2915039	69.57622
1.2939453	68.23286
1.2963867	65.551056
1.2988281	61.399574
1.3012695	56.38923
1.3037109	51.34094
1.3061523	46.211376
1.3085938	40.248478
1.3110352	33.369038
1.3134766	26.838245
1.315918	22.595486
1.3183594	21.95849
1.3208008	24.742722
1.3232422	29.480608
1.3256836	34.27206
1.328125	37.755795
1.3305664	39.87888
1.3330078	41.81092
1.3354492	44.72224
1.3378906	48.597088
1.340332	52.689022
1.3427734	56.820503
1.3452148	61.757896
1.3476562	68.39746
1.3500977	76.86144
1.3525391	86.63452
1.3549805	97.244995
1.3574219	108.14214
1.3598633	117.79801
1.3623047	123.52684
1.3647461	122.70195
1.3671875	114.3171
1.3696289	99.59746
1.3720703	81.15869
1.3745117	61.451603
1.3769531	42.282257
1.3793945	28.570282
1.3818359	34.000195
1.3842773	55.081295
1.3867188	79.56089
1.3891602	102.72086
1.3916016	122.87849
1.394043	139.81905
1.3964844	153.96442
1.3989258	165.59964
1.4013672	174.46733
1.4038086	179.87427
1.40625	181.09807
1.4086914	177.74115
1.4111328	169.88762
1.4135742	158.05577
1.4160156	142.98737
1.418457	125.5071
1.4208984	106.83925
1.4233398	89.49615
1.4257812	77.896866
1.4282227	76.4458
1.4306641	85.26906
1.4331055	100.91961
1.4355469	120.21459
1.4379883	140.57208
1.4404297	159.6219
1.4428711	176.05067
1.4453125	190.14894
1.4477539	202.79063
1.4501953	213.71896
1.4526367	221.26234
1.4550781	224.0207
1.4575195	222.51918
1.4599609	218.8763
1.4624023	214.57707
1.4648438	208.80144
1.4672852	199.45898
1.4697266	185.72946
1.472168	169.38504
1.4746094	153.94627
1.4770508	142.63591
1.4794922	136.87764
1.4819336	136.23715
1.484375	139.13148
1.4868164	143.53046
1.4892578	147.78357
1.4916992	151.39204
1.4941406	154.94574
1.496582	158.92162
1.4990234	162.42172
1.5014648	163.25272
1.5039062	159.28433
1.5063477	149.81076
1.5087891	135.89157
1.5112305	119.56252
1.5136719	102.49743
1.5161133	85.305786
1.5185547	68.45253
1.5209961	54.290245
1.5234375	47.778454
1.5258789	51.05402
1.5283203	59.087086
1.5307617	66.76772
1.5332031	72.33702
1.5356445	75.59841
1.5380859	76.31549
1.5405273	73.973495
1.5429688	68.35438
1.5454102	59.960407
1.5478516	49.959087
1.550293	39.824894
1.5527344	30.993195
1.5551758	24.610937
1.5576172	21.315807
1.5600586	20.85877
1.5625	21.927338
1.5649414	22.784754
1.5673828	22.05924
1.5698242	19.186535
1.5722656	14.494678
1.574707	8.940378
1.5771484	4.1373415
1.5795898	4.406729
1.5820312	7.876616
1.5844727	11.073116
1.5869141	13.6128
1.5893555	14.955527
1.5917969	14.497844
1.5942383	12.843177
1.5966797	12.458529
1.5991211	14.165449
1.6015625	14.876017
1.6040039	12.239603
1.6064453	7.9051986
1.6088867	10.440953
1.6113281	17.840134
1.6137695	24.178148
1.6162109	29.5775
1.6186523	36.23135
1.6210938	44.136826
1.6235352	50.599514
1.6259766	53.924553
1.628418	56.15156
1.6308594	61.604713
1.6333008	71.2449
1.6357422	81.455185
1.6381836	88.95194
1.640625	93.61177
1.6430664	97.44056
1.6455078	101.75076
1.6479492	105.60318
1.6503906	106.93384
1.652832	104.39179
1.6552734	98.07505
1.6577148	89.19038
1.6601562	79.29032
1.6625977	69.57343
1.6650391	60.671463
1.6674805	53.185368
1.6699219	48.650322
1.6723633	49.64094
1.6748047	57.3374
1.6772461	70.01928
1.6796875	85.236984
1.6821289	101.40016
1.6845703	117.37936
1.6870117	131.77809
1.6894531	142.92476
1.6918945	149.60576
1.6943359	151.63481
1.6967773	149.6829
1.6992188	144.52042
1.7016602	136.34312
1.7041016	124.80767
1.706543	109.68768
1.7089844	91.66576
1.7114258	72.76677
1.7138672	56.420696
1.7163086	47.17016
1.71875	48.122723
1.7211914	56.74796
1.7236328	67.81123
1.7260742	77.52962
1.7285156	84.116905
1.730957	87.50481
1.7333984	88.48639
1.7358398	87.491165
1.7382812	84.1706
1.7407227	78.18803
1.7431641	70.08407
1.7456055	61.33827
1.7480469	53.72546
1.7504883	48.764965
1.7529297	47.437317
1.7553711	49.753815
1.7578125	54.429996
1.7602539	59.490067
1.7626953	63.210995
1.7651367	64.58815
1.7675781	63.32005
1.7700195	59.603786
1.7724609	54.07158
1.7749023	48.003845
1.7773438	43.78926
1.7797852	44.678234
1.7822266	52.44008
1.784668	65.939354
1.7871094	83.10691
1.7895508	102.18973
1.7919922	121.59922
1.7944336	139.82721
1.796875	155.76102
1.7993164	169.05168
1.8017578	180.06392
1.8041992	189.26683
1.8066406	196.52599
1.809082	200.90253
1.8115234	201.1878
1.8139648	196.73607
1.8164062	187.96724
1.8188477	176.18135
1.8212891	162.69734
1.8237305	147.96077
1.8261719	131.48946
1.8286133	112.82047
1.8310547	92.51987
1.8334961	72.31934
1.8359375	54.368427
1.8383789	40.6328
1.8408203	33.82982
1.8432617	37.054344
1.8457031	48.074787
1.8481445	61.490932
1.8505859	73.62583
1.8530273	82.892586
1.8554688	89.19153
1.8579102	93.206955
1.8603516	95.78035
1.862793	97.65991
1.8652344	99.59397
1.8676758	102.33898
1.8701172	106.46211
1.8725586	112.07468
1.875	118.66987
1.8774414	125.1892
1.8798828	130.40404
1.8823242	133.38004
1.8847656	133.71814
1.887207	131.2866
1.8896484	125.75843
1.8920898	116.59188
1.8945312	103.65491
1.8969727	87.83461
1.8994141	70.88123
1.9018555	54.46274
1.9042969	39.320095
1.9067383	25.676807
1.9091797	14.958158
1.9116211	11.477814
1.9140625	13.83454
1.9165039	14.95745
1.9189453	14.262896
1.9213867	15.947803
1.9238281	23.123064
1.9262695	34.552387
1.9287109	49.27167
1.9311523	66.90826
1.9335938	86.568665
1.9360352	106.72224
1.9384766	125.54832
1.940918	141.25244
1.9433594	152.29504
1.9458008	157.86192
1.9482422	158.36877
1.9506836	155.42584
1.953125	151.00047
1.9555664	146.33664
1.9580078	141.78311
1.9604492	137.659
1.9628906	134.90276
1.965332	134.72311
1.9677734	137.85443
1.9702148	144.25711
1.9726562	153.14647
1.9750977	162.8371
1.9775391	170.88072
1.9799805	174.90152
1.9824219	173.63446
1.9848633	167.37788
1.9873047	157.62181
1.9897461	146.13762
1.9921875	134.24648
1.9946289	122.66605
1.9970703	111.67709
1.9995117	101.24392
2.0019531	90.96787
2.0043945	80.256676
2.006836	68.73156
2.0092773	56.60031
2.0117188	44.76593
2.0141602	34.58573
2.0166016	27.550707
2.019043	25.04912
2.0214844	27.679407
2.0239258	34.29744
2.0263672	42.79404
2.0288086	51.411186
2.03125	59.486336
2.0336914	67.46975
2.0361328	75.92801
2.0385742	84.26106
2.0410156	90.669266
2.043457	93.533
2.0458984	92.9046
2.0483398	90.88182
2.0507812	90.20918
2.0532227	91.74851
2.055664	93.71169
2.0581055	93.728714
2.0605469	90.91721
2.0629883	86.17207
2.0654297	80.96236
2.067871	75.92749
2.0703125	70.5298
2.072754	63.94806
2.0751953	56.082043
2.0776367	47.89327
2.0800781	41.120975
2.0825195	37.503914
2.084961	37.588806
2.0874023	40.474007
2.0898438	44.937447
2.0922852	50.080254
2.0947266	54.984898
2.097168	58.495148
2.0996094	59.571457
2.1020508	57.894424
2.1044922	54.21429
2.1069336	50.218388
2.109375	47.914917
2.1118164	48.81498
2.1142578	53.280666
2.1166992	60.397636
2.1191406	68.437454
2.121582	75.60842
2.1240234	80.78807
2.1264648	83.88343
2.1289062	85.62071
2.1313477	86.92599
2.133789	88.27012
2.1362305	89.44462
2.1386719	89.807465
2.1411133	88.631195
2.1435547	85.413475
2.145996	80.10309
2.1484375	73.25951
2.150879	66.04032
2.1533203	59.803932
2.1557617	55.301373
2.1582031	52.071335
2.1606445	48.89121
2.163086	45.06891
2.1655273	41.452248
2.1679688	40.15245
2.1704102	42.460583
2.1728516	47.14194
2.175293	51.982674
2.1777344	55.789333
2.1801758	58.77819
2.1826172	62.003372
2.1850586	66.37884
2.1875	71.857765
2.1899414	77.43261
2.1923828	81.77134
2.1948242	83.97926
2.1972656	84.03841
2.199707	82.898186
2.2021484	82.166824
2.2045898	83.3166
2.2070312	86.70578
2.2094727	91.26991
2.211914	95.29045
2.2143555	97.48033
2.2167969	97.53773
2.2192383	95.99832
2.2216797	93.68713
2.224121	91.168434
2.2265625	88.582146
2.229004	85.82121
2.2314453	82.645645
2.2338867	78.555916
2.2363281	72.713745
2.2387695	64.34251
2.241211	53.426277
2.2436523	41.04907
2.2460938	28.945639
2.2485352	18.487349
2.2509766	10.440704
2.253418	9.582767
2.2558594	18.134714
2.2583008	28.856451
2.2607422	38.463905
2.2631836	45.395462
2.265625	49.562305
2.2680664	52.249798
2.2705078	55.056087
2.2729492	58.391262
2.2753906	61.287895
2.277832	62.655575
2.2802734	62.396873
2.2827148	61.545418
2.2851562	61.652122
2.2875977	63.95938
2.290039	68.72248
2.2924805	75.07469
2.2949219	81.45999
2.2973633	86.38367
2.2998047	89.049706
2.302246	89.66684
2.3046875	89.19818
2.307129	88.64764
2.3095703	88.24564
2.3120117	87.20455
2.3144531	84.280945
2.3168945	78.621185
2.319336	70.324265
2.3217773	60.4502
2.3242188	50.547756
2.3266602	41.911278
2.3291016	34.995213
2.331543	29.460358
2.3339844	24.761253
2.3364258	20.625538
2.3388672	17.151133
2.3413086	14.714117
2.34375	13.593796
2.3461914	13.659897
2.3486328	14.917167
2.3510742	17.938036
2.3535156	22.965172
2.355957	29.339687
2.3583984	36.247566
2.3608398	43.343285
2.3632812	50.67217
2.3657227	58.10125
2.368164	64.97526
2.3706055	70.445984
2.3730469	74.114456
2.3754883	76.4114
2.3779297	78.34034
2.380371	80.712456
2.3828125	83.54859
2.385254	86.22285
2.3876953	88.10744
2.3901367	89.10417
2.3925781	89.70377
2.3950195	90.671
2.397461	92.521126
2.3999023	95.15341
2.4023438	97.945724
2.4047852	100.31444
2.4072266	102.33355
2.409668	104.80645
2.4121094	108.45076
2.4145508	112.86259
2.4169922	116.46453
2.4194336	117.65026
2.421875	115.99272
2.4243164	112.55898
2.4267578	109.14033
2.4291992	106.92316
2.4316406	105.74531
2.434082	104.68436
2.4365234	103.18655
2.4389648	101.7093
2.4414062	101.58389
2.4438477	104.2306
2.446289	110.03961
2.4487305	117.6205
2.4511719	124.31128
2.4536133	127.61962
2.4560547	126.70821
2.458496	123.13246
2.4609375	120.11298
2.463379	120.01075
2.4658203	121.96837
2.4682617	122.60291
2.4707031	118.8345
2.4731445	109.77577
2.475586	96.91582
2.4780273	83.2566
2.4804688	71.74808
2.4829102	63.528164
2.4853516	57.31223
2.487793	50.91171
2.4902344	43.10923
2.4926758	34.181
2.4951172	25.387844
2.4975586	18.234156
2.5	13.890025
2.5024414	12.881368
2.5048828	15.067517
2.5073242	19.898764
2.5097656	26.67396
2.512207	34.491325
2.5146484	42.17959
2.5170898	48.51469
2.5195312	52.856712
2.5219727	55.906673
2.524414	59.789494
2.5268555	66.41813
2.5292969	75.32353
2.5317383	83.97356
2.5341797	90.04292
2.536621	92.93879
2.5390625	93.85101
2.541504	94.47034
2.5439453	95.4325
2.5463867	96.032455
2.5488281	95.38735
2.5512695	93.58956
2.553711	91.71826
2.5561523	90.89411
2.5585938	91.24652
2.5610352	91.80127
2.5634766	91.30544
2.565918	89.16138
2.5683594	85.77681
2.5708008	82.23076
2.5732422	79.38526
2.5756836	77.12588
2.578125	74.489784
2.5805664	70.54288
2.5830078	65.1818
2.5854492	59.293365
2.5878906	54.30866
2.590332	51.286552
2.5927734	50.138832
2.5952148	49.736824
2.5976562	48.75516
2.6000977	46.32027
2.602539	42.291023
2.6049805	37.295605
2.6074219	32.580864
2.6098633	29.634422
2.6123047	29.658318
2.614746	33.131645
2.6171875	39.59347
2.619629	47.724384
2.6220703	55.73665
2.6245117	61.97333
2.6269531	65.37668
2.6293945	65.785286
2.631836	63.92991
2.6342773	61.11982
2.6367188	58.615837
2.6391602	56.87243
2.6416016	55.26393
2.644043	52.65383
2.6464844	48.316826
2.6489258	42.572453
2.6513672	36.99578
2.6538086	33.82577
2.65625	34.071793
2.6586914	36.205013
2.6611328	38.081314
2.6635742	38.97018
2.6660156	39.806858
2.668457	42.08604
2.6708984	46.126286
2.6733398	50.631798
2.6757812	53.951824
2.6782227	55.28297
2.680664	54.93254
2.6831055	53.84342
2.6855469	52.808155
2.6879883	52.040546
2.6904297	51.475674
2.692871	51.34188
2.6953125	52.31004
2.697754	55.219894
2.7001953	60.61018
2.7026367	68.37977
2.7050781	77.71398
2.7075195	87.40907
2.709961	96.39911
2.7124023	104.15418
2.7148438	110.70404
2.7172852	116.33826
2.7197266	121.25646
2.722168	125.43326
2.7246094	128.69524
2.7270508	130.7922
2.7294922	131.42453
2.7319336	130.30661
2.734375	127.33266
2.7368164	122.8131
2.7392578	117.5232
2.7416992	112.54065
2.7441406	108.85493
2.746582	106.91943
2.7490234	106.39815
2.7514648	106.25337
2.7539062	105.16409
2.7563477	102.09266
2.758789	96.75077
2.7612305	89.80836
2.7636719	82.64318
2.7661133	76.594406
2.7685547	72.097595
2.770996	68.4766
2.7734375	64.68244
2.775879	60.19631
2.7783203	55.352863
2.7807617	51.091698
2.7832031	48.431934
2.7856445	47.898182
2.788086	49.234802
2.7905273	51.56593
2.7929688	53.82148
2.7954102	55.142773
2.7978516	55.18378
2.800293	54.2381
2.8027344	53.09895
2.8051758	52.603146
2.8076172	53.1522
2.8100586	54.600693
2.8125	56.53789
2.8149414	58.51095
2.8173828	60.11043
2.8198242	61.162834
2.8222656	62.09866
2.824707	63.919506
2.8271484	67.37635
2.8295898	71.96866
2.8320312	76.085144
2.8344727	78.15197
2.836914	77.581314
2.8393555	75.00925
2.8417969	71.89015
2.8442383	69.66825
2.8466797	68.96814
2.849121	69.37004
2.8515625	69.909615
2.854004	69.82753
2.8564453	69.02565
2.8588867	68.08878
2.8613281	67.76024
2.8637695	68.09109
2.866211	68.060616
2.8686523	66.17089
2.8710938	61.50721
2.8735352	54.459324
2.8759766	46.78714
2.878418	40.687927
2.8808594	36.992516
2.8833008	34.35166
2.8857422	31.19378
2.8881836	27.958006
2.890625	27.141907
2.8930664	30.154242
2.8955078	34.912884
2.8979492	38.711506
2.9003906	40.50297
2.902832	40.94674
2.9052734	41.503544
2.9077148	43.00181
2.9101562	44.823975
2.9125977	45.591354
2.915039	44.34099
2.9174805	41.072227
2.9199219	36.663574
2.9223633	32.444374
2.9248047	29.597248
2.927246	28.581821
2.9296875	28.939117
2.932129	29.650026
2.9345703	29.68771
2.9370117	28.436045
2.9394531	25.939001
2.9418945	22.921148
2.944336	20.511953
2.9467773	19.778685
2.9492188	21.260666
2.9516602	24.723309
2.9541016	29.232676
2.956543	33.486176
2.9589844	36.34251
2.9614258	37.34159
2.9638672	37.02112
2.9663086	36.62935
2.96875	37.138954
2.9711914	38.24932
2.9736328	38.724045
2.9760742	37.66751
2.9785156	35.43633
2.980957	33.69161
2.9833984	34.22317
2.9858398	37.065815
2.9882812	40.605854
2.9907227	43.342056
2.993164	44.72956
2.9956055	45.065006
2.9980469	45.107124
3.0004883	45.673622
3.0029297	47.13145
3.005371	48.98697
3.0078125	50.136654
3.010254	49.681362
3.0126953	47.59614
3.0151367	44.744743
3.0175781	42.145687
3.0200195	40.09544
3.022461	38.12527
3.0249023	35.846935
3.0273438	33.570526
3.0297852	32.071648
3.0322266	31.849796
3.034668	32.720352
3.0371094	34.14427
3.0395508	35.695686
3.0419922	37.168877
3.0444336	38.46803
3.046875	39.535194
3.0493164	40.323124
3.0517578	40.80347
3.0541992	40.973175
3.0566406	40.894817
3.059082	40.746483
3.0615234	40.852585
3.0639648	41.576523
3.0664062	43.1133
3.0688477	45.389378
3.071289	48.218014
3.0737305	51.586678
3.0761719	55.70892
3.0786133	60.722782
3.0810547	66.306564
3.083496	71.59388
3.0859375	75.448746
3.088379	76.84919
3.0908203	75.17882
3.0932617	70.421005
3.0957031	63.245342
3.0981445	54.951534
3.100586	47.205376
3.1030273	41.461975
3.1054688	38.241013
3.1079102	36.933865
3.1103516	36.42975
3.112793	35.76132
3.1152344	34.31961
3.1176758	32.02839
3.1201172	29.56708
3.1225586	28.1388
3.125	28.332026
3.1274414	29.22529
3.1298828	29.24027
3.1323242	27.450003
3.1347656	23.9583
3.137207	19.565634
3.1396484	15.113318
3.1420898	11.007723
3.1445312	7.913932
3.1469727	8.505051
3.149414	13.101901
3.1518555	18.584053
3.1542969	23.129051
3.1567383	26.020952
3.1591797	27.358593
3.161621	27.874332
3.1640625	28.534046
3.166504	29.957039
3.1689453	31.984577
3.1713867	33.87005
3.1738281	34.862923
3.1762695	34.68732
3.178711	33.684914
3.1811523	32.57246
3.1835938	31.887758
3.1860352	31.512175
3.1884766	30.807934
3.190918	29.218
3.1933594	26.78256
3.1958008	24.309824
3.1982422	23.065548
3.2006836	23.786816
3.203125	25.9001
3.2055664	28.184364
3.2080078	29.674864
3.2104492	29.869068
3.2128906	28.614967
3.215332	26.057232
3.2177734	22.653482
3.2202148	19.129374
3.2226562	16.225368
3.2250977	14.214119
3.227539	12.68045
3.2299805	11.123875
3.2324219	9.76513
3.2348633	9.621756
3.2373047	11.117628
3.239746	13.27612
3.2421875	15.071648
3.244629	16.135105
3.2470703	16.588974
3.2495117	16.731632
3.2519531	16.801653
3.2543945	16.958452
3.256836	17.370195
3.2592773	18.252478
3.2617188	19.87248
3.2641602	22.538513
3.2666016	26.409006
3.269043	31.186575
3.2714844	36.110897
3.2739258	40.3222
3.2763672	43.323074
3.2788086	45.20761
3.28125	46.470154
3.2836914	47.459064
3.2861328	47.952763
3.2885742	47.312363
3.2910156	45.080868
3.293457	41.495247
3.2958984	37.636486
3.2983398	35.081455
3.3007812	34.898476
3.3032227	36.6854
3.305664	39.0135
3.3081055	40.582825
3.3105469	40.733654
3.3129883	39.426987
3.3154297	37.057327
3.317871	34.228218
3.3203125	31.493015
3.322754	29.12716
3.3251953	27.047218
3.3276367	24.932411
3.3300781	22.490532
3.3325195	19.646704
3.334961	16.61866
3.3374023	13.836586
3.3398438	11.709537
3.3422852	10.237705
3.3447266	8.907837
3.347168	7.1652236
3.3496094	5.033646
3.3520508	3.9510543
3.3544922	5.7382774
3.3569336	8.644405
3.359375	11.294244
3.3618164	13.322732
3.3642578	14.741285
3.3666992	15.660518
3.3691406	16.140732
3.371582	16.179937
3.3740234	15.781157
3.3764648	14.988221
3.3789062	13.910719
3.3813477	12.815697
3.383789	12.32171
3.3862305	13.377099
3.3886719	16.50074
3.3911133	21.300217
3.3935547	27.000834
3.395996	32.850567
3.3984375	38.195507
3.400879	42.49167
3.4033203	45.37793
3.4057617	46.804367
3.4082031	47.15578
3.4106445	47.262608
3.413086	48.083088
3.4155273	50.092464
3.4179688	52.874485
3.4204102	55.411945
3.4228516	56.752743
3.425293	56.49301
3.4277344	54.911854
3.4301758	52.784863
3.4326172	50.963028
3.4350586	49.89089
3.4375	49.373802
3.4399414	48.76599
3.4423828	47.407375
3.4448242	44.981644
3.4472656	41.6908
3.449707	38.191593
3.4521484	35.2578
3.4545898	33.222878
3.4570312	31.667515
3.4594727	29.807108
3.461914	27.17646
3.4643555	23.97492
3.4667969	20.918962
3.4692383	18.775286
3.4716797	17.95265
3.474121	18.708345
3.4765625	21.496002
3.479004	26.433163
3.4814453	32.73717
3.4838867	39.08526
3.4863281	44.25042
3.4887695	47.536625
3.491211	48.96907
3.4936523	49.205772
3.4960938	49.158073
3.4985352	49.44687
3.5009766	50.080482
3.503418	50.62615
3.5058594	50.666187
3.5083008	50.135303
3.5107422	49.33127
3.5131836	48.67832
3.515625	48.422684
3.5180664	48.494354
3.5205078	48.589703
3.5229492	48.395817
3.5253906	47.811764
3.527832	47.08074
3.5302734	46.695732
3.5327148	47.017395
3.5351562	47.884613
3.5375977	48.656
3.540039	48.69391
3.5424805	47.844353
3.5449219	46.582184
3.5473633	45.736538
3.5498047	45.907135
3.552246	46.988903
3.5546875	48.264317
3.557129	48.93708
3.5595703	48.62698
3.5620117	47.61793
3.5644531	46.80747
3.5668945	47.22115
3.569336	49.175034
3.5717773	51.871735
3.5742188	53.975384
3.5766602	54.52859
3.5791016	53.492043
3.581543	51.705124
3.5839844	50.301323
3.5864258	49.858997
3.5888672	50.02335
3.5913086	49.994476
3.59375	49.271126
3.5961914	47.971165
3.5986328	46.635628
3.6010742	45.743183
3.6035156	45.30363
3.605957	44.87477
3.6083984	43.92077
3.6108398	42.176445
3.6132812	39.78648
3.6157227	37.2365
3.618164	35.104645
3.6206055	33.704857
3.6230469	32.878864
3.6254883	32.153427
3.6279297	31.126995
3.630371	29.735518
3.6328125	28.248726
3.635254	27.039818
3.6376953	26.276772
3.6401367	25.792099
3.6425781	25.251493
3.6450195	24.438087
3.647461	23.401136
3.6499023	22.375181
3.6523438	21.547129
3.6547852	20.872463
3.6572266	20.13711
3.659668	19.192503
3.6621094	18.107346
3.6645508	17.131456
3.6669922	16.532433
3.6694336	16.461107
3.671875	16.898928
3.6743164	17.65542
3.6767578	18.400606
3.6791992	18.783903
3.6816406	18.59011
3.684082	17.863472
3.6865234	16.903439
3.6889648	16.09686
3.6914062	15.610595
3.6938477	15.245276
3.696289	14.672744
3.6987305	13.799214
3.7011719	12.893926
3.7036133	12.340148
3.7060547	12.20599
3.708496	12.146185
3.7109375	11.78665
3.713379	11.042131
3.7158203	10.118325
3.7182617	9.34816
3.7207031	9.055058
3.7231445	9.461967
3.725586	10.526577
3.7280273	11.836741
3.7304688	12.799186
3.7329102	12.962016
3.7353516	12.278627
3.737793	11.263669
3.7402344	10.851132
3.7426758	11.577708
3.7451172	12.909552
3.7475586	13.916738
3.75	14.025244
3.7524414	13.121691
3.7548828	11.443501
3.7573242	9.426926
3.7597656	7.536394
3.762207	6.0820785
3.7646484	5.0775948
3.7670898	4.291595
3.7695312	3.4550066
3.7719727	2.3848605
3.774414	1.0184819
3.7768555	0.83121043
3.7792969	2.5661135
3.7817383	4.1524296
3.7841797	5.265179
3.786621	5.7774315
3.7890625	5.8468585
3.791504	5.918705
3.7939453	6.4660687
3.7963867	7.5682054
3.7988281	8.945867
3.8012695	10.308276
3.803711	11.485204
3.8061523	12.393245
3.8085938	12.983096
3.8110352	13.205193
3.8134766	13.000747
3.815918	12.321951
3.8183594	11.189881
3.8208008	9.7677965
3.8232422	8.40318
3.8256836	7.53445
3.828125	7.3266773
3.8305664	7.42772
3.8330078	7.3221908
3.8354492	6.740249
3.8378906	5.7438836
3.840332	4.65677
3.8427734	3.9099228
3.8452148	3.7567601
3.8476562	4.0845156
3.8500977	4.6905446
3.852539	5.472569
3.8549805	6.3584523
3.8574219	7.2926764
3.8598633	8.24845
3.8623047	9.193401
3.864746	10.045667
3.8671875	10.691218
3.869629	11.050041
3.8720703	11.126815
3.8745117	11.000995
3.8769531	10.773393
3.8793945	10.517262
3.881836	10.272697
3.8842773	10.070144
3.8867188	9.939481
3.8891602	9.886379
3.8916016	9.874235
3.894043	9.83802
3.8964844	9.724948
3.8989258	9.549509
3.9013672	9.439279
3.9038086	9.609238
3.90625	10.207005
3.9086914	11.149477
3.9111328	12.152706
3.9135742	12.905993
3.9160156	13.21278
3.918457	13.051373
3.9208984	12.575493
3.9233398	12.057551
3.9257812	11.765118
3.9282227	11.818369
3.930664	12.150802
3.9331055	12.608697
3.9355469	13.062243
3.9379883	13.433325
3.9404297	13.665481
3.942871	13.698551
3.9453125	13.467475
3.947754	12.921291
3.9501953	12.043635
3.9526367	10.871522
3.9550781	9.513698
3.9575195	8.172599
3.959961	7.129371
3.9624023	6.615211
3.9648438	6.593675
3.9672852	6.7662005
3.9697266	6.8336806
3.972168	6.662358
3.9746094	6.2885265
3.9770508	5.865545
3.9794922	5.578825
3.9819336	5.521617
3.984375	5.6096287
3.9868164	5.656372
3.9892578	5.519757
3.9916992	5.185181
3.9941406	4.7618866
3.996582	4.420442
3.9990234	4.2837353
4.001465	4.3317413
4.0039062	4.4254456
4.0063477	4.410347
4.008789	4.181089
4.0112305	3.6955109
4.013672	2.9696362
4.0161133	2.0808094
4.0185547	1.264329
4.020996	1.2726444
4.0234375	2.1477435
4.025879	3.1350646
4.0283203	3.9562316
4.0307617	4.4883747
4.033203	4.68345
4.0356445	4.573952
4.038086	4.2788806
4.0405273	3.9774113
4.0429688	3.826138
4.04541	3.8523247
4.0478516	3.9566157
4.050293	4.027687
4.0527344	4.0237145
4.055176	3.969427
4.057617	3.9064937
4.0600586	3.842686
4.0625	3.7413313
4.0649414	3.5541282
4.067383	3.2600253
4.069824	2.8795567
4.0722656	2.4648118
4.074707	2.0777652
4.0771484	1.7689456
4.07959	1.5664749
4.0820312	1.4755448
4.0844727	1.4856488
4.086914	1.5750145
4.0893555	1.7103606
4.091797	1.8463516
4.0942383	1.9310348
4.0966797	1.9173478
4.099121	1.7782618
4.1015625	1.5217915
4.104004	1.2060959
4.1064453	0.9600476
4.1088867	0.94515675
4.111328	1.1388873
4.1137695	1.3692775
4.116211	1.5273937
4.1186523	1.5757438
4.1210938	1.5208867
4.123535	1.4040858
4.1259766	1.2994972
4.128418	1.2944567
4.1308594	1.4228338
4.133301	1.628557
4.135742	1.8230201
4.1381836	1.937397
4.140625	1.9355303
4.1430664	1.8133214
4.145508	1.5934219
4.147949	1.3144231
4.1503906	1.0172787
4.152832	0.7326163
4.1552734	0.47478274
4.157715	0.24767461
4.1601562	0.092944145
4.1625977	0.19299667
4.165039	0.33369604
4.1674805	0.43400085
4.169922	0.48232424
4.1723633	0.47992095
4.1748047	0.43782082
4.177246	0.3750013
4.1796875	0.3180107
4.182129	0.29952905
4.1845703	0.3371958
4.1870117	0.41112387
4.189453	0.4873269
4.1918945	0.5384706
4.194336	0.54693997
4.1967773	0.5072132
4.1992188	0.42768705
4.20166	0.333067
4.2041016	0.2632751
4.206543	0.24812056
4.2089844	0.26193205
4.211426	0.26158533
4.213867	0.23540431
4.2163086	0.20518163
4.21875	0.20704272
4.2211914	0.2410341
4.223633	0.27200955
4.226074	0.2762822
4.2285156	0.24979313
4.230957	0.2017796
4.2333984	0.14716959
4.23584	0.0995837
4.2382812	0.06680584
4.2407227	0.053244542
4.243164	0.064064056
4.2456055	0.09221602
4.248047	0.12468638
4.2504883	0.15216099
4.2529297	0.169226
4.255371	0.1742413
4.2578125	0.16880788
4.260254	0.15665953
4.2626953	0.14227284
4.2651367	0.12956761
4.267578	0.12079918
4.2700195	0.11602625
4.272461	0.11300608
4.2749023	0.10853188
4.2773438	0.09989158
4.279785	0.08591056
4.2822266	0.067326866
4.284668	0.04748014
4.2871094	0.034791373
4.289551	0.04086827
4.291992	0.058734648
4.2944336	0.07744951
4.296875	0.09256762
4.2993164	0.10187502
4.301758	0.10432846
4.304199	0.099891275
4.3066406	0.08991694
4.309082	0.07730161
4.3115234	0.0671814
4.313965	0.06645377
4.3164062	0.07787784
4.3188477	0.09682393
4.321289	0.11711362
4.3237305	0.13435943
4.326172	0.14612038
4.3286133	0.15146239
4.3310547	0.15087774
4.333496	0.14566016
4.3359375	0.13751955
4.338379	0.12801026
4.3408203	0.11865208
4.3432617	0.11070379
4.345703	0.10448179
4.3481445	0.09892657
4.350586	0.092140794
4.3530273	0.0824966
4.3554688	0.06942532
4.35791	0.053659137
4.3603516	0.036858104
4.362793	0.021038271
4.3652344	0.0087147085
4.367676	0.006808351
4.370117	0.011857753
4.3725586	0.015075115
4.375	0.015848951
4.3774414	0.014534825
4.379883	0.012214771
4.382324	0.012203095
4.3847656	0.017160457
4.387207	0.024550136
4.3896484	0.03137313
4.39209	0.035925318
4.3945312	0.0375701
4.3969727	0.036641013
4.399414	0.034211468
4.4018555	0.031533428
4.404297	0.0293897
4.4067383	0.027694525
4.4091797	0.025797518
4.411621	0.023232
4.4140625	0.020041082
4.416504	0.01687267
4.4189453	0.014653889
4.4213867	0.013953404
4.423828	0.014334423
4.4262695	0.01487612
4.428711	0.015147511
4.4311523	0.015087599
4.4335938	0.015067649
4.436035	0.015313237
4.4384766	0.015904715
4.440918	0.016598452
4.4433594	0.017118767
4.445801	0.017217176
4.448242	0.016781861
4.4506836	0.015974235
4.453125	0.015045429
4.4555664	0.014354593
4.458008	0.01414006
4.460449	0.014387316
4.4628906	0.014799103
4.465332	0.015051274
4.4677734	0.015019611
4.470215	0.014644171
4.4726562	0.01412165
4.4750977	0.01348719
4.477539	0.012780662
4.4799805	0.011885946
4.482422	0.010723324
4.4848633	0.009284249
4.4873047	0.0076160375
4.489746	0.005919269
4.4921875	0.004398434
4.494629	0.0032579056
4.4970703	0.0025804397
4.4995117	0.0024289992
4.501953	0.002617946
4.5043945	0.0029882235
4.506836	0.0033630754
4.5092773	0.0036820823
4.5117188	0.003911156
4.51416	0.0040241037
4.5166016	0.0040577333
4.519043	0.0040292377
4.5214844	0.003907988
4.523926	0.0036964035
4.526367	0.0033999505
4.5288086	0.003045534
4.53125	0.0026541194
4.5336914	0.0022318373
4.536133	0.001809814
4.538574	0.0014460027
4.5410156	0.0011562136
4.543457	0.001005003
4.5458984	0.0010146742
4.54834	0.0011402528
4.5507812	0.0013284343
4.5532227	0.0014831056
4.555664	0.001562722
4.5581055	0.001512631
4.560547	0.0013300781
4.5629883	0.0010666188
4.5654297	8.296787E-4
4.567871	7.013949E-4
4.5703125	7.45509E-4
4.572754	8.1464334E-4
4.5751953	8.022171E-4
4.5776367	7.26972E-4
4.580078	6.2450406E-4
4.5825195	5.3133024E-4
4.584961	4.8064132E-4
4.5874023	4.645639E-4
4.5898438	4.3618528E-4
4.592285	4.0194858E-4
4.5947266	3.713553E-4
4.597168	3.3746733E-4
4.5996094	2.8157124E-4
4.602051	2.3406207E-4
4.604492	1.6892693E-4
4.6069336	1.2881312E-4
4.609375	1.0850919E-4
4.6118164	1.1737372E-4
4.614258	1.3804778E-4
4.616699	1.8015229E-4
4.6191406	2.6392413E-4
4.621582	3.438205E-4
4.6240234	4.282429E-4
4.626465	4.9281167E-4
4.6289062	5.2647246E-4
4.6313477	5.569688E-4
4.633789	5.588239E-4
4.6362305	5.3120096E-4
4.638672	4.7950732E-4
4.6411133	4.231894E-4
4.6435547	3.847152E-4
4.645996	3.3591522E-4
4.6484375	3.4550967E-4
4.650879	3.5715022E-4
4.6533203	3.5364856E-4
4.6557617	3.5761602E-4
4.658203	3.1810094E-4
4.6606445	2.861379E-4
4.663086	2.1676076E-4
4.6655273	1.70832E-4
4.6679688	1.3898069E-4
4.67041	1.2363386E-4
4.6728516	9.553513E-5
4.675293	9.553513E-5
4.6777344	1.07138E-4
4.680176	1.3637636E-4
4.682617	1.5853911E-4
4.6850586	1.8455058E-4
4.6875	1.9815433E-4
4.6899414	2.2401077E-4
4.692383	2.4209717E-4
4.694824	2.9809E-4
4.6972656	3.1739747E-4
4.699707	3.392259E-4
4.7021484	3.402171E-4
4.70459	3.189947E-4
4.7070312	2.8887915E-4
4.7094727	2.2382621E-4
4.711914	1.7551755E-4
4.7143555	1.0810344E-4
4.716797	3.9415256E-5
4.7192383	1.4100196E-5
4.7216797	6.209878E-5
4.724121	9.725608E-5
4.7265625	1.2934918E-4
4.729004	1.4236744E-4
4.7314453	1.6358292E-4
4.7338867	1.7460693E-4
4.736328	1.8586761E-4
4.7387695	1.9002496E-4
4.741211	2.0256396E-4
4.7436523	1.8407147E-4
4.7460938	1.7690327E-4
4.748535	1.6195179E-4
4.7509766	1.1996798E-4
4.753418	9.8038465E-5
4.7558594	5.783388E-5
4.758301	3.644995E-5
4.760742	2.7542537E-5
4.7631836	5.362873E-5
4.765625	6.8499314E-5
4.7680664	8.629652E-5
4.770508	7.862812E-5
4.772949	9.783267E-5
4.7753906	9.281559E-5
4.777832	8.5286425E-5
4.7802734	7.721966E-5
4.782715	6.799371E-5
4.7851562	7.4662894E-5
4.7875977	8.802884E-5
4.790039	1.0503743E-4
4.7924805	1.2482457E-4
4.794922	1.4295257E-4
4.7973633	1.5041359E-4
4.7998047	1.5802818E-4
4.802246	1.5769298E-4
4.8046875	1.5081375E-4
4.807129	1.49045E-4
4.8095703	1.4239938E-4
4.8120117	1.376752E-4
4.814453	1.2170728E-4
4.8168945	1.2215869E-4
4.819336	1.1084862E-4
4.8217773	1.127066E-4
4.8242188	9.9189674E-5
4.82666	9.3280774E-5
4.8291016	9.133437E-5
4.831543	7.73362E-5
4.8339844	9.02982E-5
4.836426	7.887503E-5
4.838867	7.175944E-5
4.8413086	7.425468E-5
4.84375	6.2333835E-5
4.8461914	5.4703345E-5
4.848633	2.6973983E-5
4.851074	3.0534004E-5
4.8535156	2.861023E-5
4.855957	2.8994209E-5
4.8583984	4.264961E-5
4.86084	4.3910466E-5
4.8632812	4.780318E-5
4.8657227	4.2134707E-5
4.868164	4.401845E-5
4.8706055	4.1899202E-5
4.873047	3.6046367E-5
4.8754883	3.6040816E-5
4.8779297	3.2235886E-5
4.880371	4.5017696E-5
4.8828125	5.648458E-5
4.885254	5.910196E-5
4.8876953	6.8126865E-5
4.8901367	7.6236705E-5
4.892578	7.189971E-5
4.8950195	6.791875E-5
4.897461	5.816882E-5
4.8999023	6.7167115E-5
4.9023438	5.5069224E-5
4.904785	5.329666E-5
4.9072266	4.438839E-5
4.909668	3.8649116E-5
4.9121094	3.4334396E-5
4.914551	2.4417042E-5
4.916992	2.2144968E-5
4.9194336	9.47983E-6
4.921875	1.1057688E-5
4.9243164	1.5052353E-5
4.926758	2.4807267E-5
4.929199	1.0930289E-5
4.9316406	1.1121658E-5
4.934082	1.699254E-5
4.9365234	1.889816E-5
4.938965	7.287969E-6
4.9414062	1.2427441E-5
4.9438477	4.5816087E-6
4.946289	1.6278804E-5
4.9487305	5.7164802E-6
4.951172	1.7025957E-5
4.9536133	1.4343073E-5
4.9560547	1.1711183E-5
4.958496	1.2930137E-5
4.9609375	2.1457672E-6
4.963379	1.1175362E-5
4.9658203	7.886288E-6
4.9682617	6.950587E-6
4.970703	1.0031729E-5
4.9731445	3.7306224E-6
4.975586	5.818195E-6
4.9780273	3.967288E-6
4.9804688	8.266767E-6
4.98291	2.637733E-6
4.9853516	3.1373565E-6
4.987793	7.952181E-6
4.9902344	3.844384E-7
4.992676	7.727117E-6
4.995117	3.3158403E-6
4.9975586	1.0907703E-5



DATASET #2

Name: FAS H2 (cm/s)
Num Points: 2044
Info: 

X, Y Data:
0.009765625	0.60203093
0.012207031	0.6310463
0.014648438	0.61220056
0.017089844	0.57394934
0.01953125	0.568521
0.021972656	0.64637876
0.024414062	0.80757046
0.026855469	1.0145441
0.029296875	1.232227
0.03173828	1.4396542
0.034179688	1.6308744
0.036621094	1.8172647
0.0390625	2.030545
0.041503906	2.3195815
0.043945312	2.7351491
0.04638672	3.3092194
0.048828125	4.0455465
0.05126953	4.9253283
0.053710938	5.91832
0.056152344	6.993133
0.05859375	8.125478
0.061035156	9.303253
0.06347656	10.527411
0.06591797	11.807177
0.068359375	13.152106
0.07080078	14.564877
0.07324219	16.038279
0.075683594	17.55627
0.078125	19.095592
0.080566406	20.624935
0.08300781	22.102846
0.08544922	23.47857
0.087890625	24.699543
0.09033203	25.723858
0.09277344	26.53168
0.095214844	27.128002
0.09765625	27.533918
0.10009766	27.770412
0.10253906	27.844673
0.10498047	27.748196
0.10742188	27.467056
0.10986328	26.995016
0.11230469	26.33759
0.11474609	25.5048
0.1171875	24.503258
0.11962891	23.34241
0.12207031	22.058992
0.12451172	20.744862
0.12695312	19.55362
0.12939453	18.666056
0.13183594	18.2205
0.13427734	18.25219
0.13671875	18.692614
0.13916016	19.422167
0.14160156	20.317266
0.14404297	21.260155
0.14648438	22.132877
0.14892578	22.827627
0.15136719	23.277409
0.1538086	23.482069
0.15625	23.504057
0.1586914	23.43208
0.16113281	23.338438
0.16357422	23.26213
0.16601562	23.223537
0.16845703	23.24758
0.17089844	23.369358
0.17333984	23.61713
0.17578125	23.985504
0.17822266	24.419071
0.18066406	24.823294
0.18310547	25.10551
0.18554688	25.227764
0.18798828	25.234106
0.19042969	25.221369
0.1928711	25.26092
0.1953125	25.331678
0.1977539	25.327026
0.20019531	25.128254
0.20263672	24.67181
0.20507812	23.954794
0.20751953	22.9828
0.20996094	21.711245
0.21240234	20.036064
0.21484375	17.85142
0.21728516	15.139613
0.21972656	12.032505
0.22216797	8.801154
0.22460938	5.7743745
0.22705078	3.267428
0.22949219	1.8901316
0.2319336	2.6612108
0.234375	4.3521466
0.2368164	6.1538544
0.23925781	7.8648305
0.24169922	9.423143
0.24414062	10.880013
0.24658203	12.344832
0.24902344	13.868541
0.25146484	15.358668
0.25390625	16.612915
0.25634766	17.453941
0.25878906	17.877905
0.26123047	18.122269
0.26367188	18.569687
0.26611328	19.503984
0.2685547	20.939344
0.2709961	22.706482
0.2734375	24.62309
0.2758789	26.523823
0.2783203	28.216146
0.28076172	29.53817
0.28320312	30.513594
0.28564453	31.411589
0.28808594	32.560352
0.29052734	34.03987
0.29296875	35.59557
0.29541016	36.870453
0.29785156	37.6778
0.30029297	38.069946
0.30273438	38.22154
0.30517578	38.28506
0.3076172	38.3394
0.3100586	38.433716
0.3125	38.65492
0.3149414	39.148407
0.3173828	40.056866
0.31982422	41.428246
0.32226562	43.210777
0.32470703	45.36475
0.32714844	47.962536
0.32958984	51.163044
0.33203125	55.086758
0.33447266	59.680943
0.33691406	64.641655
0.33935547	69.46142
0.34179688	73.63575
0.34423828	76.91917
0.3466797	79.422585
0.3491211	81.425446
0.3515625	83.01338
0.3540039	83.85447
0.3564453	83.34343
0.35888672	81.00915
0.36132812	76.85554
0.36376953	71.37094
0.36621094	65.18624
0.36865234	58.649902
0.37109375	51.695988
0.37353516	44.105553
0.37597656	35.847115
0.37841797	27.153381
0.38085938	18.31553
0.38330078	9.474819
0.3857422	1.076125
0.3881836	8.129978
0.390625	16.078527
0.3930664	22.797379
0.3955078	28.026625
0.39794922	32.059513
0.40039062	35.578827
0.40283203	39.209175
0.40527344	43.095142
0.40771484	46.8037
0.41015625	49.60073
0.41259766	50.894505
0.41503906	50.526722
0.41748047	48.703655
0.41992188	45.703293
0.42236328	41.755676
0.4248047	37.266956
0.4272461	33.06442
0.4296875	30.222094
0.4321289	29.418215
0.4345703	30.421305
0.43701172	32.29706
0.43945312	33.956463
0.44189453	34.588867
0.44433594	33.978107
0.44677734	32.592598
0.44921875	31.308485
0.45166016	30.886267
0.45410156	31.514486
0.45654297	32.68305
0.45898438	33.49258
0.46142578	33.269337
0.4638672	32.01881
0.4663086	30.241508
0.46875	28.258741
0.4711914	25.987204
0.4736328	23.520905
0.47607422	21.406889
0.47851562	19.845434
0.48095703	18.131157
0.48339844	15.576344
0.48583984	12.549836
0.48828125	10.463217
0.49072266	10.553306
0.49316406	12.327016
0.49560547	14.453606
0.49804688	15.868857
0.5004883	15.886899
0.5029297	14.347576
0.5053711	11.670835
0.5078125	8.761327
0.5102539	6.869454
0.5126953	6.519767
0.5151367	6.254742
0.5175781	4.537839
0.52001953	1.3584758
0.52246094	4.4773526
0.52490234	10.305143
0.52734375	16.706718
0.52978516	23.4711
0.53222656	30.065952
0.53466797	35.606316
0.5371094	39.44084
0.5395508	41.58257
0.5419922	42.487526
0.5444336	42.52824
0.546875	41.897484
0.5493164	40.96843
0.5517578	40.397095
0.5541992	40.652645
0.5566406	41.594116
0.55908203	42.653862
0.56152344	43.2703
0.56396484	43.065804
0.56640625	41.800034
0.56884766	39.338726
0.57128906	35.698376
0.57373047	31.105453
0.5761719	26.07658
0.5786133	21.597898
0.5810547	19.191502
0.5834961	19.849255
0.5859375	22.616262
0.5883789	25.842676
0.5908203	28.594315
0.5932617	30.468483
0.5957031	31.15643
0.59814453	30.487955
0.60058594	28.73202
0.60302734	26.626131
0.60546875	25.009449
0.60791016	24.418985
0.61035156	25.012218
0.61279297	26.67253
0.6152344	28.940327
0.6176758	30.920486
0.6201172	31.61954
0.6225586	30.593403
0.625	28.275328
0.6274414	25.52697
0.6298828	22.738264
0.6323242	19.558352
0.6347656	15.588571
0.63720703	10.945713
0.63964844	6.1640654
0.64208984	2.767043
0.64453125	5.072105
0.64697266	8.748583
0.64941406	11.513393
0.65185547	13.152508
0.6542969	14.23208
0.6567383	15.651542
0.6591797	17.968443
0.6616211	20.958467
0.6640625	23.809547
0.6665039	25.79242
0.6689453	26.784088
0.6713867	27.093956
0.6738281	26.870811
0.67626953	25.996733
0.67871094	24.61083
0.68115234	23.368156
0.68359375	22.808863
0.68603516	22.560644
0.68847656	21.783995
0.69091797	20.35838
0.6933594	19.247433
0.6958008	19.696405
0.6982422	22.33297
0.7006836	27.182938
0.703125	33.651684
0.7055664	40.524628
0.7080078	46.67541
0.7104492	51.825485
0.7128906	56.568386
0.71533203	61.562645
0.71777344	66.69606
0.72021484	71.181305
0.72265625	74.327866
0.72509766	76.0157
0.72753906	76.51273
0.72998047	76.06771
0.7324219	74.78058
0.7348633	72.816315
0.7373047	70.58144
0.7397461	68.602104
0.7421875	67.19642
0.7446289	66.22644
0.7470703	65.11556
0.7495117	63.12186
0.7519531	59.70524
0.75439453	54.834267
0.75683594	49.01912
0.75927734	42.90716
0.76171875	36.65923
0.76416016	29.808537
0.76660156	21.886446
0.76904297	13.087712
0.7714844	4.372077
0.7739258	4.2308226
0.7763672	10.576172
0.7788086	15.39425
0.78125	18.555197
0.7836914	19.959248
0.7861328	19.433243
0.7885742	16.89506
0.7910156	12.530823
0.79345703	6.875957
0.79589844	1.3558758
0.79833984	6.0755854
0.80078125	12.133219
0.80322266	18.014118
0.80566406	23.726006
0.80810547	29.31899
0.8105469	34.93648
0.8129883	40.64068
0.8154297	46.135494
0.8178711	50.824535
0.8203125	54.183815
0.8227539	56.03229
0.8251953	56.50673
0.8276367	55.91091
0.8300781	54.59885
0.83251953	52.87573
0.83496094	50.91684
0.83740234	48.86377
0.83984375	47.01672
0.84228516	45.752945
0.84472656	45.19354
0.84716797	45.184433
0.8496094	45.675987
0.8520508	46.96255
0.8544922	49.371597
0.8569336	52.707714
0.859375	56.169212
0.8618164	58.867336
0.8642578	60.31773
0.8666992	60.482285
0.8691406	59.52201
0.87158203	57.595432
0.87402344	54.854355
0.87646484	51.599457
0.87890625	48.4367
0.88134766	46.241848
0.88378906	45.853294
0.88623047	47.622753
0.8886719	51.177235
0.8911133	55.611305
0.8935547	59.95477
0.8959961	63.593258
0.8984375	66.38691
0.9008789	68.43484
0.9033203	69.72461
0.9057617	69.96877
0.9082031	68.76918
0.91064453	65.892136
0.91308594	61.29507
0.91552734	54.868187
0.91796875	46.385887
0.92041016	35.974545
0.92285156	24.593933
0.92529297	13.80571
0.9277344	5.0637393
0.9301758	4.3309565
0.9326172	10.328876
0.9350586	15.673329
0.9375	19.07208
0.9399414	19.652676
0.9423828	17.38201
0.9448242	13.23484
0.9472656	9.312183
0.94970703	8.745668
0.95214844	11.548459
0.95458984	15.225267
0.95703125	18.866293
0.95947266	21.862595
0.96191406	23.130888
0.96435547	21.56787
0.9667969	16.76848
0.9692383	9.494097
0.9716797	3.2733047
0.9741211	8.295441
0.9765625	13.909636
0.9790039	17.459517
0.9814453	19.339052
0.9838867	20.145838
0.9863281	20.201803
0.98876953	19.958788
0.99121094	20.592422
0.99365234	23.657946
0.99609375	29.713085
0.99853516	38.097256
1.0009766	47.76731
1.003418	57.57098
1.0058594	66.33745
1.0083008	73.30306
1.0107422	78.49389
1.0131836	82.42721
1.015625	85.2478
1.0180664	86.32571
1.0205078	84.828354
1.0229492	80.55704
1.0253906	74.18446
1.027832	66.79798
1.0302734	59.143837
1.0327148	51.185528
1.0351562	42.36979
1.0375977	32.308315
1.0400391	21.227419
1.0424805	10.523545
1.0449219	8.918692
1.0473633	19.022997
1.0498047	30.289627
1.0522461	40.698227
1.0546875	49.398487
1.0571289	55.79466
1.0595703	59.49691
1.0620117	60.192894
1.0644531	57.621357
1.0668945	51.843735
1.0693359	43.6044
1.0717773	34.277126
1.0742188	25.279396
1.0766602	17.751415
1.0791016	13.972246
1.081543	17.11185
1.0839844	24.469309
1.0864258	32.136993
1.0888672	38.39201
1.0913086	42.807465
1.09375	45.65516
1.0961914	47.50639
1.0986328	48.952396
1.1010742	50.43692
1.1035156	52.123272
1.105957	53.83384
1.1083984	55.145077
1.1108398	55.681114
1.1132812	55.424335
1.1157227	54.77102
1.1181641	54.247765
1.1206055	54.100346
1.1230469	54.137493
1.1254883	53.874462
1.1279297	52.765896
1.1303711	50.453228
1.1328125	47.064655
1.1352539	43.369884
1.1376953	40.365833
1.1401367	38.434395
1.1425781	37.236633
1.1450195	36.66985
1.1474609	37.478916
1.1499023	40.531097
1.1523438	45.573284
1.1547852	51.21724
1.1572266	56.094078
1.159668	59.81488
1.1621094	62.95382
1.1645508	66.13457
1.1669922	69.17993
1.1694336	71.20749
1.171875	71.29409
1.1743164	68.96996
1.1767578	64.42814
1.1791992	58.539764
1.1816406	52.453053
1.184082	46.781403
1.1865234	41.33343
1.1889648	36.01677
1.1914062	31.72432
1.1938477	29.426508
1.1962891	28.440811
1.1987305	27.378891
1.2011719	26.52151
1.2036133	27.43093
1.2060547	29.8769
1.2084961	31.463531
1.2109375	30.417856
1.2133789	27.00997
1.2158203	23.119516
1.2182617	20.519985
1.2207031	18.948402
1.2231445	16.802391
1.2255859	13.236009
1.2280273	8.622905
1.2304688	3.946784
1.2329102	0.7228085
1.2353516	2.7764657
1.237793	4.1882477
1.2402344	4.84161
1.2426758	5.273748
1.2451172	5.8876724
1.2475586	6.712384
1.25	7.3777986
1.2524414	7.504804
1.2548828	7.990058
1.2573242	11.943578
1.2597656	20.384615
1.262207	31.780197
1.2646484	44.67358
1.2670898	58.2129
1.2695312	72.00541
1.2719727	85.322205
1.2744141	96.45399
1.2768555	103.08179
1.2792969	103.36452
1.2817383	96.71137
1.2841797	83.71549
1.2866211	65.639366
1.2890625	44.171352
1.2915039	22.438625
1.2939453	16.406004
1.2963867	35.197914
1.2988281	56.211784
1.3012695	74.79404
1.3037109	88.990135
1.3061523	97.22748
1.3085938	98.913895
1.3110352	94.95544
1.3134766	87.43347
1.315918	78.640114
1.3183594	70.17308
1.3208008	62.70322
1.3232422	56.324833
1.3256836	50.9317
1.328125	46.433723
1.3305664	43.021965
1.3330078	41.28277
1.3354492	41.455853
1.3378906	42.29602
1.340332	41.45672
1.3427734	37.256413
1.3452148	30.244638
1.3476562	24.183773
1.3500977	24.001507
1.3525391	27.94997
1.3549805	30.777798
1.3574219	30.862545
1.3598633	29.627048
1.3623047	28.809298
1.3647461	28.39046
1.3671875	27.780617
1.3696289	28.429777
1.3720703	33.396652
1.3745117	43.48728
1.3769531	56.989063
1.3793945	72.283676
1.3818359	88.39644
1.3842773	104.42871
1.3867188	119.15315
1.3891602	131.11066
1.3916016	139.03877
1.394043	142.29607
1.3964844	140.97856
1.3989258	135.67456
1.4013672	127.01407
1.4038086	115.34463
1.40625	100.7119
1.4086914	83.18312
1.4111328	63.45522
1.4135742	43.89456
1.4160156	31.15571
1.418457	35.021152
1.4208984	49.94451
1.4233398	66.88304
1.4257812	82.72457
1.4282227	95.82596
1.4306641	104.58414
1.4331055	107.85513
1.4355469	105.4728
1.4379883	98.106476
1.4404297	86.57022
1.4428711	71.50406
1.4453125	53.96501
1.4477539	36.52751
1.4501953	24.38597
1.4526367	23.090675
1.4550781	28.857748
1.4575195	36.864014
1.4599609	46.280952
1.4624023	55.149933
1.4648438	60.426857
1.4672852	60.500416
1.4697266	56.501743
1.472168	51.46523
1.4746094	47.625103
1.4770508	44.4764
1.4794922	40.775425
1.4819336	37.76227
1.484375	38.94537
1.4868164	45.319065
1.4892578	54.21976
1.4916992	63.733093
1.4941406	74.015205
1.496582	85.2424
1.4990234	95.7667
1.5014648	102.65398
1.5039062	103.69213
1.5063477	98.864456
1.5087891	90.31952
1.5112305	80.93658
1.5136719	72.40952
1.5161133	64.6836
1.5185547	57.248833
1.5209961	50.456318
1.5234375	45.331074
1.5258789	42.48888
1.5283203	41.74946
1.5307617	42.810467
1.5332031	45.445194
1.5356445	48.92866
1.5380859	52.04895
1.5405273	53.960266
1.5429688	54.87429
1.5454102	55.829697
1.5478516	57.55883
1.550293	59.516552
1.5527344	60.288334
1.5551758	58.800476
1.5576172	55.037434
1.5600586	49.852474
1.5625	44.29039
1.5649414	39.000305
1.5673828	34.183167
1.5698242	29.856089
1.5722656	26.069918
1.574707	22.881796
1.5771484	20.231522
1.5795898	17.949635
1.5820312	15.995887
1.5844727	14.697037
1.5869141	14.620597
1.5893555	16.079475
1.5917969	19.012852
1.5942383	23.33772
1.5966797	28.796274
1.5991211	34.44303
1.6015625	38.736694
1.6040039	40.3262
1.6064453	38.756924
1.6088867	34.454823
1.6113281	27.888962
1.6137695	18.906248
1.6162109	7.254908
1.6186523	6.9780483
1.6210938	21.577343
1.6235352	35.52712
1.6259766	48.32893
1.628418	60.44533
1.6308594	71.88914
1.6333008	81.334526
1.6357422	86.88779
1.6381836	87.61316
1.640625	84.325294
1.6430664	79.08501
1.6455078	73.811066
1.6479492	69.43698
1.6503906	66.56462
1.652832	66.169266
1.6552734	68.58324
1.6577148	72.41301
1.6601562	75.602455
1.6625977	76.976585
1.6650391	76.36219
1.6674805	73.822105
1.6699219	69.33789
1.6723633	63.325115
1.6748047	57.294632
1.6772461	53.821594
1.6796875	55.315258
1.6821289	62.259846
1.6845703	73.22923
1.6870117	86.337494
1.6894531	100.0114
1.6918945	113.02691
1.6943359	124.33074
1.6967773	132.87596
1.6992188	137.62172
1.7016602	137.67822
1.7041016	132.59807
1.706543	122.70592
1.7089844	109.34426
1.7114258	94.68313
1.7138672	80.95718
1.7163086	69.70894
1.71875	61.83157
1.7211914	58.00895
1.7236328	58.2506
1.7260742	61.17368
1.7285156	64.89276
1.730957	68.24371
1.7333984	70.60871
1.7358398	71.04886
1.7382812	68.201126
1.7407227	61.148216
1.7431641	50.195282
1.7456055	36.788017
1.7480469	22.896286
1.7504883	13.067135
1.7529297	19.63142
1.7553711	35.601765
1.7578125	53.271072
1.7602539	70.37312
1.7626953	85.69778
1.7651367	98.720276
1.7675781	109.45428
1.7700195	118.19986
1.7724609	125.35592
1.7749023	131.37743
1.7773438	136.84259
1.7797852	142.57565
1.7822266	149.6459
1.784668	159.13478
1.7871094	171.6866
1.7895508	187.05649
1.7919922	203.9919
1.7944336	220.60481
1.796875	235.11
1.7993164	246.5105
1.8017578	254.7506
1.8041992	260.2532
1.8066406	263.2191
1.809082	263.32898
1.8115234	260.04947
1.8139648	253.19429
1.8164062	243.1783
1.8188477	230.74121
1.8212891	216.38008
1.8237305	200.01698
1.8261719	181.29173
1.8286133	160.19633
1.8310547	137.50507
1.8334961	114.62984
1.8359375	93.07793
1.8383789	73.94848
1.8408203	57.805767
1.8432617	44.937317
1.8457031	35.611134
1.8481445	29.870274
1.8505859	27.030884
1.8530273	25.833563
1.8554688	25.10807
1.8579102	23.897455
1.8603516	21.623558
1.862793	19.697
1.8652344	23.133528
1.8676758	34.1557
1.8701172	49.281338
1.8725586	65.37813
1.875	80.76123
1.8774414	94.54302
1.8798828	106.0785
1.8823242	114.85975
1.8847656	120.7765
1.887207	124.2314
1.8896484	125.77343
1.8920898	125.67793
1.8945312	124.00926
1.8969727	121.10616
1.8994141	117.90781
1.9018555	115.68151
1.9042969	115.37138
1.9067383	117.03548
1.9091797	119.77714
1.9116211	122.27822
1.9140625	123.66671
1.9165039	124.15146
1.9189453	124.76477
1.9213867	126.10004
1.9238281	127.18966
1.9262695	125.95067
1.9287109	120.65285
1.9311523	110.94026
1.9335938	97.740135
1.9360352	82.58573
1.9384766	67.15709
1.940918	53.26845
1.9433594	42.875824
1.9458008	37.54893
1.9482422	37.433365
1.9506836	40.812286
1.953125	44.76224
1.9555664	46.390945
1.9580078	44.490486
1.9604492	40.987095
1.9628906	40.343433
1.965332	44.416443
1.9677734	50.073444
1.9702148	54.72323
1.9726562	59.17554
1.9750977	65.20208
1.9775391	71.99097
1.9799805	76.39709
1.9824219	75.71602
1.9848633	69.29257
1.9873047	58.394115
1.9897461	45.18839
1.9921875	31.702847
1.9946289	19.234283
1.9970703	8.348398
1.9995117	2.4144006
2.0019531	10.502754
2.0043945	19.545275
2.006836	29.871874
2.0092773	41.59966
2.0117188	53.840374
2.0141602	65.0857
2.0166016	73.82208
2.019043	79.03392
2.0214844	80.44465
2.0239258	78.41486
2.0263672	73.49513
2.0288086	66.03112
2.03125	56.13404
2.0336914	44.230667
2.0361328	31.86036
2.0385742	22.538654
2.0410156	21.366268
2.043457	28.201614
2.0458984	39.499584
2.0483398	54.160126
2.0507812	70.87231
2.0532227	87.22358
2.055664	100.89748
2.0581055	110.90965
2.0605469	117.9924
2.0629883	123.87966
2.0654297	129.85454
2.067871	135.69812
2.0703125	139.91692
2.072754	140.85072
2.0751953	137.64848
2.0776367	130.61755
2.0800781	121.0062
2.0825195	110.34021
2.084961	99.68259
2.0874023	89.31213
2.0898438	79.10735
2.0922852	69.201744
2.0947266	60.25414
2.097168	53.185055
2.0996094	48.656834
2.1020508	46.634464
2.1044922	46.189693
2.1069336	45.80954
2.109375	44.105118
2.1118164	40.46881
2.1142578	35.580597
2.1166992	31.600956
2.1191406	31.01908
2.121582	33.649807
2.1240234	36.612183
2.1264648	37.56092
2.1289062	36.088223
2.1313477	33.42563
2.133789	31.317272
2.1362305	30.438341
2.1386719	29.983858
2.1411133	29.141638
2.1435547	28.67936
2.145996	30.91014
2.1484375	37.143246
2.150879	45.897682
2.1533203	54.76063
2.1557617	62.267956
2.1582031	68.501564
2.1606445	74.8521
2.163086	82.90549
2.1655273	93.06903
2.1679688	104.25433
2.1704102	114.75888
2.1728516	123.28047
2.175293	129.45142
2.1777344	133.82433
2.1801758	137.33319
2.1826172	140.40718
2.1850586	142.32312
2.1875	141.45975
2.1899414	136.27884
2.1923828	126.30389
2.1948242	112.55859
2.1972656	97.225845
2.199707	82.640045
2.2021484	69.989586
2.2045898	58.723522
2.2070312	47.447475
2.2094727	35.49523
2.211914	23.687466
2.2143555	14.258227
2.2167969	10.73358
2.2192383	13.102255
2.2216797	16.813469
2.224121	20.08476
2.2265625	22.471067
2.229004	23.97789
2.2314453	25.158678
2.2338867	26.880602
2.2363281	29.780487
2.2387695	33.953114
2.241211	39.02542
2.2436523	44.449287
2.2460938	49.8776
2.2485352	55.534138
2.2509766	62.211815
2.253418	70.587585
2.2558594	80.297806
2.2583008	89.81425
2.2607422	97.3432
2.2631836	102.01289
2.265625	104.53596
2.2680664	106.85013
2.2705078	110.67581
2.2729492	116.07123
2.2753906	121.47488
2.277832	125.03338
2.2802734	125.82133
2.2827148	124.27318
2.2851562	121.92461
2.2875977	120.60844
2.290039	121.35107
2.2924805	123.66019
2.2949219	125.82969
2.2973633	125.994
2.2998047	123.14991
2.302246	117.76973
2.3046875	111.75286
2.307129	107.43207
2.3095703	105.76938
2.3120117	105.34145
2.3144531	103.46628
2.3168945	98.16889
2.319336	89.197586
2.3217773	77.87774
2.3242188	66.344574
2.3266602	56.668484
2.3291016	50.13841
2.331543	46.86456
2.3339844	45.913696
2.3364258	45.969162
2.3388672	45.99987
2.3413086	45.540367
2.34375	44.555656
2.3461914	43.083084
2.3486328	41.025116
2.3510742	38.38065
2.3535156	35.757984
2.355957	34.55261
2.3583984	36.178284
2.3608398	40.87521
2.3632812	47.803204
2.3657227	55.912037
2.368164	64.27609
2.3706055	72.122856
2.3730469	79.037544
2.3754883	85.19987
2.3779297	91.27724
2.380371	97.85449
2.3828125	104.82606
2.385254	111.26599
2.3876953	115.96423
2.3901367	118.16676
2.3925781	118.0804
2.3950195	116.87796
2.397461	116.08546
2.3999023	116.63716
2.4023438	118.27328
2.4047852	119.88799
2.4072266	120.43748
2.409668	119.59967
2.4121094	117.69356
2.4145508	115.04179
2.4169922	111.40765
2.4194336	106.16591
2.421875	99.09357
2.4243164	91.01161
2.4267578	83.64646
2.4291992	78.67771
2.4316406	76.66677
2.434082	76.94279
2.4365234	78.39342
2.4389648	80.2683
2.4414062	82.651024
2.4438477	86.536606
2.446289	93.01931
2.4487305	101.74164
2.4511719	110.43052
2.4536133	116.30887
2.4560547	118.03612
2.458496	116.787
2.4609375	115.72182
2.463379	117.55436
2.4658203	121.98784
2.4682617	126.039
2.4707031	126.70897
2.4731445	123.00587
2.475586	116.28226
2.4780273	109.29422
2.4804688	104.35735
2.4829102	101.66073
2.4853516	99.34281
2.487793	95.234184
2.4902344	88.41014
2.4926758	79.662834
2.4951172	71.06015
2.4975586	64.74032
2.5	61.30234
2.5024414	59.41272
2.5048828	57.47643
2.5073242	55.558395
2.5097656	55.733974
2.512207	60.079174
2.5146484	67.90464
2.5170898	76.16589
2.5195312	82.00527
2.5219727	84.33949
2.524414	84.20059
2.5268555	83.93195
2.5292969	85.21067
2.5317383	87.37965
2.5341797	88.090065
2.536621	85.355995
2.5390625	78.82764
2.541504	69.67105
2.5439453	59.566166
2.5463867	49.58541
2.5488281	39.822865
2.5512695	30.11046
2.553711	21.085505
2.5561523	15.087399
2.5585938	15.240283
2.5610352	19.880545
2.5634766	25.885506
2.565918	32.55517
2.5683594	39.912895
2.5708008	47.57508
2.5732422	54.63956
2.5756836	60.16143
2.578125	63.731228
2.5805664	65.83122
2.5830078	67.66207
2.5854492	70.34705
2.5878906	74.03108
2.590332	77.77274
2.5927734	80.243744
2.5952148	80.56405
2.5976562	78.77982
2.6000977	75.93798
2.602539	73.574844
2.6049805	72.59337
2.6074219	72.40666
2.6098633	71.38567
2.6123047	68.14323
2.614746	62.37536
2.6171875	54.91036
2.619629	47.264366
2.6220703	41.05409
2.6245117	37.4957
2.6269531	37.149494
2.6293945	39.956173
2.631836	45.423973
2.6342773	52.779564
2.6367188	61.09714
2.6391602	69.42741
2.6416016	76.89508
2.644043	82.81904
2.6464844	86.85721
2.6489258	89.141785
2.6513672	90.26485
2.6538086	91.021065
2.65625	91.98507
2.6586914	93.22638
2.6611328	94.35774
2.6635742	94.80959
2.6660156	94.069725
2.668457	91.76453
2.6708984	87.66978
2.6733398	81.81624
2.6757812	74.61975
2.6782227	66.87998
2.680664	59.48486
2.6831055	52.951187
2.6855469	47.298264
2.6879883	42.408894
2.6904297	38.42908
2.692871	35.627583
2.6953125	33.948555
2.697754	33.113026
2.7001953	33.13203
2.7026367	34.22752
2.7050781	36.046665
2.7075195	37.526024
2.709961	37.838367
2.7124023	37.314247
2.7148438	37.304985
2.7172852	38.712677
2.7197266	40.747086
2.722168	41.77929
2.7246094	40.977573
2.7270508	38.9367
2.7294922	37.260345
2.7319336	37.49973
2.734375	40.291843
2.7368164	45.50141
2.7392578	52.624096
2.7416992	60.68384
2.7441406	68.200294
2.746582	73.63551
2.7490234	76.032974
2.7514648	75.48596
2.7539062	73.25455
2.7563477	71.307755
2.758789	71.27682
2.7612305	73.39286
2.7636719	76.53135
2.7661133	79.26192
2.7685547	80.71627
2.770996	80.84294
2.7734375	80.26315
2.775879	79.916214
2.7783203	80.582
2.7807617	82.44353
2.7832031	85.00987
2.7856445	87.49527
2.788086	89.33476
2.7905273	90.5468
2.7929688	91.71009
2.7954102	93.53776
2.7978516	96.23032
2.800293	99.137474
2.8027344	101.10236
2.8051758	101.25955
2.8076172	99.70491
2.8100586	97.57982
2.8125	96.31833
2.8149414	96.44279
2.8173828	96.99879
2.8198242	96.32554
2.8222656	93.331604
2.824707	88.20261
2.8271484	82.26596
2.8295898	77.118744
2.8320312	73.53599
2.8344727	71.048775
2.836914	68.650024
2.8393555	65.79817
2.8417969	62.800465
2.8442383	60.507385
2.8466797	59.667686
2.849121	60.33127
2.8515625	61.72167
2.854004	62.646812
2.8564453	62.14992
2.8588867	59.999985
2.8613281	56.719006
2.8637695	53.026943
2.866211	49.033222
2.8686523	44.09067
2.8710938	37.744007
2.8735352	31.223642
2.8759766	28.324203
2.878418	31.940298
2.8808594	39.13498
2.8833008	45.773186
2.8857422	50.252487
2.8881836	53.249588
2.890625	56.475933
2.8930664	60.83521
2.8955078	65.35135
2.8979492	67.96235
2.9003906	66.99325
2.902832	62.00123
2.9052734	53.877357
2.9077148	44.41818
2.9101562	35.531235
2.9125977	28.287575
2.915039	22.532103
2.9174805	17.939987
2.9199219	15.837825
2.9223633	18.246975
2.9248047	23.656092
2.927246	29.122044
2.9296875	33.066483
2.932129	35.33543
2.9345703	36.811768
2.9370117	38.637802
2.9394531	41.29372
2.9418945	44.36636
2.944336	47.102062
2.9467773	48.90191
2.9492188	49.467575
2.9516602	48.921947
2.9541016	48.01132
2.956543	47.942345
2.9589844	49.49965
2.9614258	52.23374
2.9638672	54.92068
2.9663086	56.705887
2.96875	57.652344
2.9711914	58.52434
2.9736328	60.192886
2.9760742	63.078102
2.9785156	66.84398
2.980957	70.478516
2.9833984	72.779495
2.9858398	73.000336
2.9882812	71.31137
2.9907227	68.79797
2.993164	66.92767
2.9956055	66.72647
2.9980469	68.268166
3.0004883	70.865685
3.0029297	73.611404
3.005371	75.80458
3.0078125	77.161804
3.010254	77.86172
3.0126953	78.360275
3.0151367	79.04184
3.0175781	79.93617
3.0200195	80.69665
3.022461	80.79481
3.0249023	79.77283
3.0273438	77.44223
3.0297852	73.99419
3.0322266	69.9654
3.034668	65.947014
3.0371094	62.10554
3.0395508	57.918617
3.0419922	52.493702
3.0444336	45.250362
3.046875	36.369854
3.0493164	26.766937
3.0517578	17.726973
3.0541992	10.564505
3.0566406	6.6264925
3.059082	6.182069
3.0615234	6.616352
3.0639648	6.2677007
3.0664062	5.618968
3.0688477	6.998477
3.071289	11.174741
3.0737305	16.664047
3.0761719	22.404987
3.0786133	27.83185
3.0810547	32.61473
3.083496	36.451256
3.0859375	38.937527
3.088379	39.642586
3.0908203	38.393192
3.0932617	35.641277
3.0957031	32.684986
3.0981445	31.29275
3.100586	32.286533
3.1030273	34.566998
3.1054688	36.27855
3.1079102	36.330727
3.1103516	34.927677
3.112793	33.384804
3.1152344	33.200092
3.1176758	34.703793
3.1201172	36.882248
3.1225586	38.605263
3.125	39.49058
3.1274414	39.892757
3.1298828	40.45579
3.1323242	41.57569
3.1347656	43.09282
3.137207	44.44031
3.1396484	45.18566
3.1420898	45.54192
3.1445312	46.371105
3.1469727	48.458366
3.149414	51.64704
3.1518555	54.876297
3.1542969	56.994576
3.1567383	57.42917
3.1591797	56.35335
3.161621	54.501083
3.1640625	52.738712
3.166504	51.59298
3.1689453	51.033363
3.1713867	50.691685
3.1738281	50.29361
3.1762695	49.909462
3.178711	49.852253
3.1811523	50.303623
3.1835938	51.001965
3.1860352	51.300217
3.1884766	50.536278
3.190918	48.38172
3.1933594	44.9864
3.1958008	40.920002
3.1982422	37.006355
3.2006836	34.15464
3.203125	33.157425
3.2055664	34.41892
3.2080078	37.687164
3.2104492	42.10274
3.2128906	46.561108
3.215332	50.110043
3.2177734	52.255108
3.2202148	53.051414
3.2226562	52.939877
3.2250977	52.39347
3.227539	51.65092
3.2299805	50.73952
3.2324219	49.672577
3.2348633	48.54118
3.2373047	47.412872
3.239746	46.221123
3.2421875	44.792274
3.244629	42.99245
3.2470703	40.873234
3.2495117	38.773663
3.2519531	37.258484
3.2543945	36.748127
3.256836	36.98624
3.2592773	36.970528
3.2617188	35.56565
3.2641602	32.214535
3.2666016	27.315414
3.269043	22.20056
3.2714844	18.571228
3.2739258	17.072662
3.2763672	16.474472
3.2788086	15.335327
3.28125	13.542114
3.2836914	12.46938
3.2861328	13.637856
3.2885742	16.35667
3.2910156	18.726967
3.293457	19.541975
3.2958984	18.735662
3.2983398	17.593277
3.3007812	18.517973
3.3032227	22.671051
3.305664	28.552996
3.3081055	34.10246
3.3105469	37.94506
3.3129883	39.530323
3.3154297	39.12349
3.317871	37.689762
3.3203125	36.516895
3.322754	36.549145
3.3251953	37.85585
3.3276367	39.82485
3.3300781	41.820965
3.3325195	43.566963
3.334961	45.088783
3.3374023	46.445065
3.3398438	47.47144
3.3422852	47.765682
3.3447266	46.897205
3.347168	44.709454
3.3496094	41.51385
3.3520508	38.06439
3.3544922	35.267548
3.3569336	33.701294
3.359375	33.29869
3.3618164	33.55739
3.3642578	34.0042
3.3666992	34.40849
3.3691406	34.684475
3.371582	34.695568
3.3740234	34.161148
3.3764648	32.71483
3.3789062	30.068708
3.3813477	26.227554
3.383789	21.734167
3.3862305	17.959774
3.3886719	16.920534
3.3911133	19.206972
3.3935547	23.024963
3.395996	26.55995
3.3984375	28.90944
3.400879	29.790949
3.4033203	29.243893
3.4057617	27.479683
3.4082031	24.885103
3.4106445	22.12668
3.413086	20.118765
3.4155273	19.477448
3.4179688	19.797846
3.4204102	19.967817
3.4228516	19.136024
3.425293	17.174843
3.4277344	14.660641
3.4301758	12.629494
3.4326172	11.997951
3.4350586	12.692311
3.4375	13.829293
3.4399414	14.679646
3.4423828	15.024442
3.4448242	15.137897
3.4472656	15.651901
3.449707	17.111618
3.4521484	19.415289
3.4545898	21.826042
3.4570312	23.48991
3.4594727	23.93578
3.461914	23.485369
3.4643555	23.406612
3.4667969	25.08736
3.4692383	28.364626
3.4716797	31.507908
3.474121	32.7412
3.4765625	31.170147
3.479004	26.993076
3.4814453	21.472004
3.4838867	16.919838
3.4863281	15.848273
3.4887695	17.80354
3.491211	19.961922
3.4936523	20.604124
3.4960938	19.425604
3.4985352	16.98123
3.5009766	14.252221
3.503418	12.261666
3.5058594	11.631577
3.5083008	12.226068
3.5107422	13.405503
3.5131836	14.574311
3.515625	15.428579
3.5180664	15.97346
3.5205078	16.384348
3.5229492	16.754309
3.5253906	16.918734
3.527832	16.540298
3.5302734	15.38888
3.5327148	13.602271
3.5351562	11.751668
3.5375977	10.519487
3.540039	10.002241
3.5424805	9.602879
3.5449219	8.810089
3.5473633	7.634969
3.5498047	6.4492316
3.552246	5.738751
3.5546875	5.9184685
3.557129	6.8695536
3.5595703	7.825119
3.5620117	7.972643
3.5644531	6.9513035
3.5668945	5.2880363
3.569336	4.9791055
3.5717773	6.978177
3.5742188	9.190464
3.5766602	10.180188
3.5791016	9.50103
3.581543	7.4384446
3.5839844	5.0663543
3.5864258	4.390893
3.5888672	5.6879325
3.5913086	7.0181417
3.59375	7.870137
3.5961914	8.8196
3.5986328	10.521413
3.6010742	12.948321
3.6035156	15.609371
3.605957	18.087608
3.6083984	20.254385
3.6108398	22.234442
3.6132812	24.211618
3.6157227	26.17123
3.618164	27.80037
3.6206055	28.649658
3.6230469	28.396246
3.6254883	27.027899
3.6279297	24.878088
3.630371	22.53152
3.6328125	20.59279
3.635254	19.370651
3.6376953	18.688295
3.6401367	18.076021
3.6425781	17.157122
3.6450195	15.862555
3.647461	14.38848
3.6499023	12.97203
3.6523438	11.651747
3.6547852	10.232068
3.6572266	8.484512
3.659668	6.351367
3.6621094	4.0110593
3.6645508	1.8573698
3.6669922	0.8530543
3.6694336	1.4299303
3.671875	1.9806303
3.6743164	3.2335224
3.6767578	5.465993
3.6791992	7.9896607
3.6816406	10.056448
3.684082	11.206461
3.6865234	11.487305
3.6889648	11.533928
3.6914062	12.211438
3.6938477	13.784165
3.696289	15.697763
3.6987305	17.2631
3.7011719	18.150175
3.7036133	18.42833
3.7060547	18.380629
3.708496	18.23197
3.7109375	18.000196
3.713379	17.591312
3.7158203	17.008211
3.7182617	16.447838
3.7207031	16.201296
3.7231445	16.423521
3.725586	16.971357
3.7280273	17.470373
3.7304688	17.5299
3.7329102	16.939783
3.7353516	15.798734
3.737793	14.557261
3.7402344	13.867736
3.7426758	14.09664
3.7451172	14.921037
3.7475586	15.647444
3.75	15.757434
3.7524414	15.118816
3.7548828	13.958322
3.7573242	12.737231
3.7597656	11.94299
3.762207	11.780905
3.7646484	12.00369
3.7670898	12.139888
3.7695312	11.860518
3.7719727	11.19498
3.774414	10.536917
3.7768555	10.360138
3.7792969	10.715842
3.7817383	11.139565
3.7841797	11.094005
3.786621	10.305324
3.7890625	8.8522835
3.791504	7.2282414
3.7939453	6.3988237
3.7963867	7.0757604
3.7988281	8.608338
3.8012695	10.010967
3.803711	10.817901
3.8061523	11.013655
3.8085938	10.83848
3.8110352	10.58332
3.8134766	10.41421
3.815918	10.311343
3.8183594	10.133178
3.8208008	9.735043
3.8232422	9.098687
3.8256836	8.413745
3.828125	8.007467
3.8305664	8.058905
3.8330078	8.392842
3.8354492	8.66544
3.8378906	8.623132
3.840332	8.164771
3.8427734	7.3231416
3.8452148	6.2874403
3.8476562	5.4826765
3.8500977	5.4770055
3.852539	6.3756576
3.8549805	7.647905
3.8574219	8.741775
3.8598633	9.348601
3.8623047	9.40113
3.864746	9.038279
3.8671875	8.535708
3.869629	8.189008
3.8720703	8.1761875
3.8745117	8.48542
3.8769531	8.975895
3.8793945	9.49037
3.881836	9.919518
3.8842773	10.216325
3.8867188	10.376571
3.8891602	10.410411
3.8916016	10.323494
3.894043	10.129909
3.8964844	9.885573
3.8989258	9.709708
3.9013672	9.750307
3.9038086	10.082846
3.90625	10.618529
3.9086914	11.127129
3.9111328	11.355786
3.9135742	11.147085
3.9160156	10.505677
3.918457	9.592256
3.9208984	8.649415
3.9233398	7.879152
3.9257812	7.3525023
3.9282227	7.034956
3.930664	6.8932276
3.9331055	6.948306
3.9355469	7.21917
3.9379883	7.6383066
3.9404297	8.045384
3.942871	8.258576
3.9453125	8.151916
3.947754	7.696791
3.9501953	6.9656405
3.9526367	6.1187215
3.9550781	5.376842
3.9575195	4.9531507
3.959961	4.907979
3.9624023	5.0726724
3.9648438	5.1774592
3.9672852	5.0040526
3.9697266	4.4416304
3.972168	3.5049672
3.9746094	2.3575666
3.9770508	1.410457
3.9794922	1.3934932
3.9819336	1.9202406
3.984375	2.2455664
3.9868164	2.242517
3.9892578	2.0384567
3.9916992	1.8942287
3.9941406	2.0719643
3.996582	2.572152
3.9990234	3.1783612
4.001465	3.6842701
4.0039062	3.962708
4.0063477	3.980619
4.008789	3.804184
4.0112305	3.5846066
4.013672	3.5021937
4.0161133	3.6576178
4.0185547	4.0033593
4.020996	4.4181848
4.0234375	4.8074894
4.025879	5.124863
4.0283203	5.341265
4.0307617	5.4165773
4.033203	5.3067026
4.0356445	4.996822
4.038086	4.5373073
4.0405273	4.0545273
4.0429688	3.7092648
4.04541	3.5853152
4.0478516	3.6072834
4.050293	3.620359
4.0527344	3.5235481
4.055176	3.317646
4.057617	3.0793703
4.0600586	2.8973665
4.0625	2.8017728
4.0649414	2.7442913
4.067383	2.6487262
4.069824	2.4687254
4.0722656	2.20788
4.074707	1.9094983
4.0771484	1.6325003
4.07959	1.4234984
4.0820312	1.2985481
4.0844727	1.2478063
4.086914	1.2510077
4.0893555	1.2796922
4.091797	1.2950163
4.0942383	1.2569017
4.0966797	1.137963
4.099121	0.9314268
4.1015625	0.6520686
4.104004	0.3404806
4.1064453	0.1852367
4.1088867	0.41694722
4.111328	0.6582739
4.1137695	0.820513
4.116211	0.88621503
4.1186523	0.8573699
4.1210938	0.74806774
4.123535	0.5802525
4.1259766	0.38528776
4.128418	0.23119003
4.1308594	0.25641307
4.133301	0.3821468
4.135742	0.46812737
4.1381836	0.46874174
4.140625	0.3745354
4.1430664	0.2027374
4.145508	0.0750812
4.147949	0.27544314
4.1503906	0.4733296
4.152832	0.6192379
4.1552734	0.7112837
4.157715	0.7680131
4.1601562	0.8102809
4.1625977	0.8400608
4.165039	0.8391939
4.1674805	0.78953487
4.169922	0.6969665
4.1723633	0.6082549
4.1748047	0.5996484
4.177246	0.69142
4.1796875	0.8151643
4.182129	0.90028924
4.1845703	0.9108691
4.1870117	0.84136546
4.189453	0.70901126
4.1918945	0.54686594
4.194336	0.39716908
4.1967773	0.3019218
4.1992188	0.2734668
4.20166	0.27361244
4.2041016	0.26427168
4.206543	0.23650815
4.2089844	0.20277566
4.211426	0.1879909
4.213867	0.20524846
4.2163086	0.23543923
4.21875	0.25284162
4.2211914	0.24441108
4.223633	0.21126081
4.226074	0.17010717
4.2285156	0.15572788
4.230957	0.1879293
4.2333984	0.23864026
4.23584	0.27969697
4.2382812	0.30111453
4.2407227	0.30594146
4.243164	0.30447415
4.2456055	0.30624643
4.248047	0.31313866
4.2504883	0.32060277
4.2529297	0.32441345
4.255371	0.32424393
4.2578125	0.32186043
4.260254	0.31728667
4.2626953	0.3073909
4.2651367	0.2877207
4.267578	0.25598493
4.2700195	0.21465264
4.272461	0.17170157
4.2749023	0.13971356
4.2773438	0.12851705
4.279785	0.13307802
4.2822266	0.13909431
4.284668	0.13762966
4.2871094	0.12713632
4.289551	0.11075986
4.291992	0.09349338
4.2944336	0.080088206
4.296875	0.0738793
4.2993164	0.07677015
4.301758	0.0873298
4.304199	0.09962724
4.3066406	0.10628965
4.309082	0.10177982
4.3115234	0.08445129
4.313965	0.057315297
4.3164062	0.030563863
4.3188477	0.030903734
4.321289	0.049242087
4.3237305	0.060301084
4.326172	0.05976029
4.3286133	0.049957454
4.3310547	0.036743607
4.333496	0.027843917
4.3359375	0.026825437
4.338379	0.027696729
4.3408203	0.026945282
4.3432617	0.02876855
4.345703	0.037471864
4.3481445	0.049674746
4.350586	0.060082685
4.3530273	0.06569156
4.3554688	0.06593319
4.35791	0.06202449
4.3603516	0.05619138
4.362793	0.05051576
4.3652344	0.04617215
4.367676	0.0431152
4.370117	0.040905025
4.3725586	0.03960166
4.375	0.039369326
4.3774414	0.039768353
4.379883	0.039548133
4.382324	0.037655264
4.3847656	0.03391601
4.387207	0.029359339
4.3896484	0.025548588
4.39209	0.023444464
4.3945312	0.022431975
4.3969727	0.021017497
4.399414	0.018293386
4.4018555	0.01413903
4.404297	0.009076228
4.4067383	0.005153382
4.4091797	0.007928806
4.411621	0.013866263
4.4140625	0.019335937
4.416504	0.023065787
4.4189453	0.024399744
4.4213867	0.023346739
4.423828	0.020446228
4.4262695	0.016763952
4.428711	0.013655853
4.4311523	0.012271698
4.4335938	0.012517408
4.436035	0.013106715
4.4384766	0.013052389
4.440918	0.012017369
4.4433594	0.010374339
4.445801	0.008925542
4.448242	0.0086058
4.4506836	0.00932976
4.453125	0.010101735
4.4555664	0.010237093
4.458008	0.0094271945
4.460449	0.007851466
4.4628906	0.0058837943
4.465332	0.0039300034
4.4677734	0.0024490415
4.470215	0.0017365173
4.4726562	0.0016466589
4.4750977	0.0015206067
4.477539	0.0011981502
4.4799805	0.0011879618
4.482422	0.002113885
4.4848633	0.0033849766
4.4873047	0.004616731
4.489746	0.005512557
4.4921875	0.005960976
4.494629	0.005940637
4.4970703	0.0056007816
4.4995117	0.0051122704
4.501953	0.0047617583
4.5043945	0.0046675005
4.506836	0.0047489633
4.5092773	0.0048815925
4.5117188	0.004902222
4.51416	0.0047824704
4.5166016	0.0045046723
4.519043	0.0041491096
4.5214844	0.0037245709
4.523926	0.0032932076
4.526367	0.0028883452
4.5288086	0.0025259103
4.53125	0.0022334289
4.5336914	0.0020150987
4.536133	0.0018643662
4.538574	0.0017392598
4.5410156	0.0016484275
4.543457	0.0016190239
4.5458984	0.0016370495
4.54834	0.0017186741
4.5507812	0.0018009257
4.5532227	0.001859669
4.555664	0.0018141897
4.5581055	0.0016452685
4.560547	0.0013647409
4.5629883	9.964238E-4
4.5654297	6.3286565E-4
4.567871	3.440891E-4
4.5703125	2.3133552E-4
4.572754	2.677211E-4
4.5751953	2.7227856E-4
4.5776367	2.2075862E-4
4.580078	1.4741128E-4
4.5825195	1.5082293E-4
4.584961	2.1721142E-4
4.5874023	2.755733E-4
4.5898438	2.9381813E-4
4.592285	3.0447403E-4
4.5947266	2.7593106E-4
4.597168	2.646314E-4
4.5996094	2.1878445E-4
4.602051	1.5872075E-4
4.604492	8.826718E-5
4.6069336	1.4515913E-5
4.609375	1.0532987E-4
4.6118164	1.8302846E-4
4.614258	2.145807E-4
4.616699	2.2290128E-4
4.6191406	1.9289134E-4
4.621582	1.5609711E-4
4.6240234	1.4270027E-4
4.626465	1.5558916E-4
4.6289062	2.1564616E-4
4.6313477	2.789063E-4
4.633789	3.5000884E-4
4.6362305	4.247319E-4
4.638672	4.5315264E-4
4.6411133	4.728477E-4
4.6435547	4.4951317E-4
4.645996	4.0288983E-4
4.6484375	3.3707765E-4
4.650879	2.7474295E-4
4.6533203	2.3395261E-4
4.6557617	2.1338314E-4
4.658203	2.2826175E-4
4.6606445	2.552235E-4
4.663086	2.8220512E-4
4.6655273	2.920783E-4
4.6679688	2.8915406E-4
4.67041	3.0919292E-4
4.6728516	3.0853334E-4
4.675293	3.183826E-4
4.6777344	3.1225226E-4
4.680176	2.9701774E-4
4.682617	2.7081772E-4
4.6850586	2.1216336E-4
4.6875	1.4929655E-4
4.6899414	8.075634E-5
4.692383	8.9560126E-5
4.694824	1.471628E-4
4.6972656	1.951336E-4
4.699707	2.2219753E-4
4.7021484	2.353022E-4
4.70459	2.1741098E-4
4.7070312	1.7195952E-4
4.7094727	1.1991749E-4
4.711914	6.410508E-5
4.7143555	7.5165026E-6
4.716797	3.8146973E-5
4.7192383	6.446838E-5
4.7216797	9.1806694E-5
4.724121	1.0013126E-4
4.7265625	9.692034E-5
4.729004	9.3231705E-5
4.7314453	7.1742936E-5
4.7338867	4.8248006E-5
4.736328	9.155274E-6
4.7387695	3.237777E-5
4.741211	6.5212356E-5
4.7436523	8.765196E-5
4.7460938	9.577625E-5
4.748535	1.0300319E-4
4.7509766	9.3527786E-5
4.753418	9.406536E-5
4.7558594	9.752471E-5
4.758301	9.102111E-5
4.760742	8.991444E-5
4.7631836	6.759595E-5
4.765625	5.2032527E-5
4.7680664	4.410258E-5
4.770508	1.3797337E-5
4.772949	1.1811037E-5
4.7753906	2.337339E-5
4.777832	2.1253034E-5
4.7802734	2.7634844E-5
4.782715	2.8505772E-5
4.7851562	3.8926737E-5
4.7875977	5.423448E-5
4.790039	6.899015E-5
4.7924805	8.403424E-5
4.794922	9.11595E-5
4.7973633	9.704637E-5
4.7998047	9.794491E-5
4.802246	1.0346554E-4
4.8046875	8.206477E-5
4.807129	8.468628E-5
4.8095703	6.3914114E-5
4.8120117	4.866095E-5
4.814453	3.7401547E-5
4.8168945	2.1101863E-5
4.819336	1.2207031E-5
4.8217773	6.67572E-6
4.8242188	7.0339543E-6
4.82666	2.3651124E-5
4.8291016	2.603234E-5
4.831543	2.1201618E-5
4.8339844	3.131771E-5
4.836426	3.179728E-5
4.838867	3.6189394E-5
4.8413086	3.691397E-5
4.84375	4.066725E-5
4.8461914	6.0156217E-5
4.848633	5.1139716E-5
4.851074	6.8294336E-5
4.8535156	5.6570818E-5
4.855957	6.2253246E-5
4.8583984	5.8174137E-5
4.86084	4.3727814E-5
4.8632812	3.814423E-5
4.8657227	3.3681856E-5
4.868164	2.8200393E-5
4.8706055	3.2592787E-5
4.873047	3.4266515E-5
4.8754883	3.21251E-5
4.8779297	3.1991192E-5
4.880371	2.802736E-5
4.8828125	2.3944634E-5
4.885254	3.0577125E-5
4.8876953	2.2125245E-5
4.8901367	3.208884E-5
4.892578	2.152855E-5
4.8950195	2.7655897E-5
4.897461	1.7859955E-5
4.8999023	2.5395686E-5
4.9023438	3.0981355E-5
4.904785	2.334146E-5
4.9072266	2.21778E-5
4.909668	1.6801998E-5
4.9121094	7.0339543E-6
4.914551	1.5358599E-5
4.916992	8.446346E-6
4.9194336	2.5095955E-5
4.921875	1.1444489E-5
4.9243164	2.917433E-5
4.926758	2.2900897E-5
4.929199	3.245465E-5
4.9316406	1.3674506E-5
4.934082	1.6717955E-5
4.9365234	8.806913E-6
4.938965	1.3658867E-5
4.9414062	8.506433E-6
4.9438477	9.765271E-6
4.946289	5.2060486E-6
4.9487305	1.3511247E-5
4.951172	1.0269727E-5
4.9536133	8.942827E-6
4.9560547	1.0589651E-5
4.958496	6.9534894E-6
4.9609375	4.639371E-6
4.963379	1.5717555E-5
4.9658203	1.4103669E-5
4.9682617	8.346456E-6
4.970703	1.6711358E-5
4.9731445	6.063955E-6
4.975586	1.2022942E-5
4.9780273	1.1009932E-5
4.9804688	1.1726282E-5
4.98291	5.749659E-6
4.9853516	1.2500503E-5
4.987793	8.919182E-6
4.9902344	1.2690814E-5
4.992676	8.848381E-6
4.995117	1.2408856E-5
4.9975586	5.9676518E-6



DATASET #3

Name: EAS (cm/s)
Num Points: 2044
Info: 

X, Y Data:
0.009765625	1.4401321
0.012207031	1.7162254
0.014648438	1.939956
0.017089844	2.1003406
0.01953125	2.1845212
0.021972656	2.1795907
0.024414062	2.077036
0.026855469	1.8812349
0.029296875	1.6243863
0.03173828	1.392784
0.034179688	1.3434339
0.036621094	1.5897859
0.0390625	2.0641973
0.041503906	2.6480188
0.043945312	3.270807
0.04638672	3.9033978
0.048828125	4.541855
0.05126953	5.19705
0.053710938	5.8866334
0.056152344	6.6284523
0.05859375	7.437472
0.061035156	8.32544
0.06347656	9.301251
0.06591797	10.369159
0.068359375	11.525489
0.07080078	12.756919
0.07324219	14.041886
0.075683594	15.353988
0.078125	16.663887
0.080566406	17.938168
0.08300781	19.137663
0.08544922	20.218979
0.087890625	21.141981
0.09033203	21.88028
0.09277344	22.429235
0.095214844	22.805273
0.09765625	23.035753
0.10009766	23.144348
0.10253906	23.14077
0.10498047	23.021473
0.10742188	22.779118
0.10986328	22.412115
0.11230469	21.925102
0.11474609	21.320402
0.1171875	20.591343
0.11962891	19.730103
0.12207031	18.75318
0.12451172	17.729872
0.12695312	16.790747
0.12939453	16.095293
0.13183594	15.763466
0.13427734	15.815966
0.13671875	16.176563
0.13916016	16.728144
0.14160156	17.359468
0.14404297	17.970213
0.14648438	18.459719
0.14892578	18.736032
0.15136719	18.750828
0.1538086	18.530281
0.15625	18.169355
0.1586914	17.783302
0.16113281	17.449492
0.16357422	17.187614
0.16601562	16.989174
0.16845703	16.857796
0.17089844	16.818968
0.17333984	16.897518
0.17578125	17.088701
0.17822266	17.346987
0.18066406	17.601704
0.18310547	17.794767
0.18554688	17.920238
0.18798828	18.031101
0.19042969	18.192787
0.1928711	18.412209
0.1953125	18.610697
0.1977539	18.672344
0.20019531	18.520905
0.20263672	18.156406
0.20507812	17.631983
0.20751953	17.003757
0.20996094	16.305706
0.21240234	15.575039
0.21484375	14.903197
0.21728516	14.448291
0.21972656	14.35335
0.22216797	14.613279
0.22460938	15.043956
0.22705078	15.41256
0.22949219	15.585968
0.2319336	15.558833
0.234375	15.367284
0.2368164	15.00268
0.23925781	14.428904
0.24169922	13.676559
0.24414062	12.894344
0.24658203	12.284717
0.24902344	11.974287
0.25146484	11.947988
0.25390625	12.107024
0.25634766	12.379548
0.25878906	12.804742
0.26123047	13.547487
0.26367188	14.799441
0.26611328	16.626436
0.2685547	18.935541
0.2709961	21.573963
0.2734375	24.392603
0.2758789	27.222038
0.2783203	29.870583
0.28076172	32.21535
0.28320312	34.29479
0.28564453	36.254353
0.28808594	38.143482
0.29052734	39.770607
0.29296875	40.79699
0.29541016	40.979313
0.29785156	40.336502
0.30029297	39.131824
0.30273438	37.735123
0.30517578	36.4925
0.3076172	35.67188
0.3100586	35.462067
0.3125	35.98931
0.3149414	37.341934
0.3173828	39.570034
0.31982422	42.63415
0.32226562	46.36269
0.32470703	50.502415
0.32714844	54.841064
0.32958984	59.301334
0.33203125	63.924614
0.33447266	68.73517
0.33691406	73.57185
0.33935547	78.041725
0.34179688	81.68211
0.34423828	84.22402
0.3466797	85.73027
0.3491211	86.4568
0.3515625	86.52628
0.3540039	85.71448
0.3564453	83.57749
0.35888672	79.814224
0.36132812	74.54857
0.36376953	68.30581
0.36621094	61.701126
0.36865234	55.092594
0.37109375	48.520016
0.37353516	42.003464
0.37597656	35.90848
0.37841797	31.03461
0.38085938	28.292433
0.38330078	28.066084
0.3857422	29.793436
0.3881836	32.26943
0.390625	34.246635
0.3930664	34.88337
0.3955078	34.019264
0.39794922	32.222645
0.40039062	30.560163
0.40283203	30.12069
0.40527344	31.396236
0.40771484	33.92536
0.41015625	36.62602
0.41259766	38.48881
0.41503906	39.03657
0.41748047	38.329643
0.41992188	36.66095
0.42236328	34.33567
0.4248047	31.777817
0.4272461	29.674992
0.4296875	28.714794
0.4321289	29.083479
0.4345703	30.40439
0.43701172	32.0942
0.43945312	33.62698
0.44189453	34.731243
0.44433594	35.586655
0.44677734	36.766293
0.44921875	38.85344
0.45166016	42.054462
0.45410156	46.014477
0.45654297	49.813026
0.45898438	52.271088
0.46142578	52.570713
0.4638672	50.73388
0.4663086	47.493347
0.46875	43.643894
0.4711914	39.592205
0.4736328	35.597397
0.47607422	32.15739
0.47851562	29.844687
0.48095703	28.924814
0.48339844	29.377495
0.48583984	30.988316
0.48828125	33.30361
0.49072266	35.870373
0.49316406	38.45583
0.49560547	40.785427
0.49804688	42.300674
0.5004883	42.488293
0.5029297	41.387833
0.5053711	39.65408
0.5078125	38.117306
0.5102539	37.215706
0.5126953	36.73542
0.5151367	36.127056
0.5175781	35.193764
0.52001953	34.450138
0.52246094	34.59187
0.52490234	35.69238
0.52734375	37.39958
0.52978516	39.59714
0.53222656	42.17024
0.53466797	44.45366
0.5371094	45.563103
0.5395508	45.15581
0.5419922	43.569412
0.5444336	41.327614
0.546875	38.771656
0.5493164	36.199745
0.5517578	34.056854
0.5541992	32.725513
0.5566406	32.222233
0.55908203	32.27554
0.56152344	32.634743
0.56396484	33.217884
0.56640625	34.060806
0.56884766	35.2509
0.57128906	36.94111
0.57373047	39.358
0.5761719	42.668835
0.5786133	46.732475
0.5810547	50.960846
0.5834961	54.49779
0.5859375	56.64654
0.5883789	57.20428
0.5908203	56.365284
0.5932617	54.277004
0.5957031	50.837677
0.59814453	46.082493
0.60058594	40.663643
0.60302734	35.72942
0.60546875	32.191593
0.60791016	30.184668
0.61035156	29.334782
0.61279297	29.184662
0.6152344	29.189594
0.6176758	28.713089
0.6201172	27.318632
0.6225586	25.065771
0.625	22.449625
0.6274414	19.90016
0.6298828	17.361738
0.6323242	14.628192
0.6347656	11.994886
0.63720703	10.211872
0.63964844	9.693823
0.64208984	10.13173
0.64453125	10.872135
0.64697266	11.166443
0.64941406	10.617492
0.65185547	9.801411
0.6542969	10.202496
0.6567383	12.747027
0.6591797	17.068901
0.6616211	22.378077
0.6640625	27.690104
0.6665039	32.13438
0.6689453	35.462082
0.6713867	37.961254
0.6738281	39.766888
0.67626953	40.54221
0.67871094	40.04224
0.68115234	38.720947
0.68359375	37.442017
0.68603516	36.5194
0.68847656	35.411987
0.69091797	33.52141
0.6933594	30.852194
0.6958008	27.854755
0.6982422	25.176897
0.7006836	23.94291
0.703125	25.374935
0.7055664	29.153353
0.7080078	33.71586
0.7104492	38.165413
0.7128906	42.69559
0.71533203	47.61743
0.71777344	52.514297
0.72021484	56.483818
0.72265625	58.870472
0.72509766	59.601707
0.72753906	59.00538
0.72998047	57.478786
0.7324219	55.33079
0.7348633	52.86393
0.7373047	50.483723
0.7397461	48.649925
0.7421875	47.670822
0.7446289	47.49568
0.7470703	47.668655
0.7495117	47.50104
0.7519531	46.360535
0.75439453	43.956257
0.75683594	40.474186
0.75927734	36.418163
0.76171875	32.227192
0.76416016	28.134398
0.76660156	24.617287
0.76904297	22.833628
0.7714844	23.749298
0.7739258	26.70433
0.7763672	30.097565
0.7788086	32.682613
0.78125	33.768803
0.7836914	33.05252
0.7861328	30.52944
0.7885742	26.545744
0.7910156	22.073631
0.79345703	19.138592
0.79589844	20.095707
0.79833984	24.918072
0.80078125	31.875935
0.80322266	39.841
0.80566406	48.2394
0.80810547	56.646763
0.8105469	64.67475
0.8129883	71.8756
0.8154297	77.69751
0.8178711	81.63846
0.8203125	83.44978
0.8227539	83.146
0.8251953	80.89863
0.8276367	77.03176
0.8300781	72.0603
0.83251953	66.54759
0.83496094	60.865597
0.83740234	55.202763
0.83984375	49.805748
0.84228516	45.03092
0.84472656	41.108437
0.84716797	38.08117
0.8496094	36.079136
0.8520508	35.472218
0.8544922	36.514275
0.8569336	38.87421
0.859375	41.740288
0.8618164	44.351902
0.8642578	46.32397
0.8666992	47.585423
0.8691406	48.163177
0.87158203	48.013683
0.87402344	46.99564
0.87646484	45.053288
0.87890625	42.47329
0.88134766	39.90603
0.88378906	38.10198
0.88623047	37.655922
0.8886719	38.870632
0.8911133	41.56998
0.8935547	45.11212
0.8959961	48.789265
0.8984375	52.18438
0.9008789	55.156906
0.9033203	57.567757
0.9057617	59.019062
0.9082031	58.917107
0.91064453	56.808254
0.91308594	52.570324
0.91552734	46.280777
0.91796875	38.1746
0.92041016	29.00299
0.92285156	20.461401
0.92529297	15.182143
0.9277344	14.993116
0.9301758	18.09085
0.9326172	21.885965
0.9350586	24.778158
0.9375	25.737925
0.9399414	24.485807
0.9423828	21.560888
0.9448242	18.070255
0.9472656	15.355577
0.94970703	14.466343
0.95214844	15.411447
0.95458984	17.497644
0.95703125	20.17393
0.95947266	22.977226
0.96191406	25.479904
0.96435547	27.794344
0.9667969	30.937393
0.9692383	36.060207
0.9716797	43.035374
0.9741211	50.5122
0.9765625	57.230618
0.9790039	62.778503
0.9814453	67.267876
0.9838867	70.57958
0.9863281	72.18169
0.98876953	71.66374
0.99121094	69.19891
0.99365234	65.44716
0.99609375	61.198605
0.99853516	57.288284
1.0009766	54.67474
1.003418	54.061092
1.0058594	55.251545
1.0083008	57.34157
1.0107422	59.58991
1.0131836	61.653744
1.015625	63.07496
1.0180664	63.08764
1.0205078	61.125336
1.0229492	57.326607
1.0253906	52.464718
1.027832	47.48552
1.0302734	43.038742
1.0327148	39.225784
1.0351562	35.74806
1.0375977	32.500732
1.0400391	30.17215
1.0424805	30.207767
1.0449219	33.63645
1.0473633	39.90338
1.0498047	47.496082
1.0522461	55.0528
1.0546875	61.685417
1.0571289	66.751274
1.0595703	69.53187
1.0620117	69.26421
1.0644531	65.615456
1.0668945	59.21257
1.0693359	51.723198
1.0717773	45.183174
1.0742188	40.908936
1.0766602	39.212353
1.0791016	40.347954
1.081543	44.8021
1.0839844	52.241356
1.0864258	61.249218
1.0888672	70.16878
1.0913086	77.75436
1.09375	83.369644
1.0961914	86.99826
1.0986328	89.11392
1.1010742	90.34771
1.1035156	91.045815
1.105957	91.046684
1.1083984	89.91286
1.1108398	87.4465
1.1132812	84.05423
1.1157227	80.69111
1.1181641	78.407
1.1206055	77.72753
1.1230469	78.30388
1.1254883	79.12391
1.1279297	79.078255
1.1303711	77.48067
1.1328125	74.31953
1.1352539	70.1519
1.1376953	65.61424
1.1401367	60.88119
1.1425781	55.734642
1.1450195	50.28213
1.1474609	45.50838
1.1499023	42.88073
1.1523438	43.073517
1.1547852	45.2227
1.1572266	47.755997
1.159668	49.59041
1.1621094	50.568783
1.1645508	51.153133
1.1669922	51.725555
1.1694336	52.102764
1.171875	51.66044
1.1743164	49.83562
1.1767578	46.57322
1.1791992	42.49706
1.1816406	38.50361
1.184082	34.81132
1.1865234	30.713081
1.1889648	25.963844
1.1914062	22.536602
1.1938477	23.496243
1.1962891	27.967714
1.1987305	32.61073
1.2011719	36.034855
1.2036133	38.74588
1.2060547	41.535122
1.2084961	44.482445
1.2109375	47.309856
1.2133789	49.97465
1.2158203	52.492355
1.2182617	54.575016
1.2207031	55.90647
1.2231445	56.654305
1.2255859	57.313393
1.2280273	57.958855
1.2304688	57.97279
1.2329102	56.667576
1.2353516	53.968437
1.237793	50.495247
1.2402344	47.181484
1.2426758	44.79285
1.2451172	43.610603
1.2475586	43.35588
1.25	43.31859
1.2524414	42.624107
1.2548828	40.61174
1.2573242	37.307777
1.2597656	33.898426
1.262207	32.657047
1.2646484	35.467136
1.2670898	42.281925
1.2695312	51.984108
1.2719727	63.15204
1.2744141	73.741295
1.2768555	81.375626
1.2792969	84.34442
1.2817383	82.30605
1.2841797	76.16686
1.2866211	67.534294
1.2890625	58.48672
1.2915039	51.693047
1.2939453	49.62298
1.2963867	52.610996
1.2988281	58.862858
1.3012695	66.23403
1.3037109	72.64687
1.3061523	76.120544
1.3085938	75.51125
1.3110352	71.168915
1.3134766	64.671875
1.315918	57.85682
1.3183594	51.99248
1.3208008	47.664955
1.3232422	44.95327
1.3256836	43.408596
1.328125	42.31779
1.3305664	41.4802
1.3330078	41.547684
1.3354492	43.119987
1.3378906	45.555626
1.340332	47.40671
1.3427734	48.044823
1.3452148	48.624973
1.3476562	51.298477
1.3500977	56.93748
1.3525391	64.36902
1.3549805	72.12441
1.3574219	79.521126
1.3598633	85.889854
1.3623047	89.690735
1.3647461	89.055565
1.3671875	83.18703
1.3696289	73.23901
1.3720703	62.056705
1.3745117	53.23271
1.3769531	50.1774
1.3793945	54.959946
1.3818359	66.96993
1.3842773	83.48444
1.3867188	101.30994
1.3891602	117.77432
1.3916016	131.20767
1.394043	141.063
1.3964844	147.61436
1.3989258	151.37839
1.4013672	152.59656
1.4038086	151.09457
1.40625	146.52542
1.4086914	138.76482
1.4111328	128.23488
1.4135742	115.99215
1.4160156	103.47963
1.418457	92.13716
1.4208984	83.39388
1.4233398	79.00285
1.4257812	80.346985
1.4282227	86.67922
1.4306641	95.416595
1.4331055	104.44495
1.4355469	113.08417
1.4379883	121.21343
1.4404297	128.40085
1.4428711	134.3627
1.4453125	139.7656
1.4477539	145.70226
1.4501953	152.1027
1.4526367	157.30576
1.4550781	159.71545
1.4575195	159.48941
1.4599609	158.19096
1.4624023	156.6602
1.4648438	153.70335
1.4672852	147.38417
1.4697266	137.27322
1.472168	125.17979
1.4746094	113.94649
1.4770508	105.64836
1.4794922	100.9904
1.4819336	99.96637
1.484375	102.1624
1.4868164	106.43028
1.4892578	111.30985
1.4916992	116.1496
1.4941406	121.42165
1.496582	127.51931
1.4990234	133.32681
1.5014648	136.36218
1.5039062	134.3941
1.5063477	126.92014
1.5087891	115.37793
1.5112305	102.09291
1.5136719	88.73799
1.5161133	75.70022
1.5185547	63.099834
1.5209961	52.40835
1.5234375	46.570843
1.5258789	46.967106
1.5283203	51.158092
1.5307617	56.083263
1.5332031	60.40658
1.5356445	63.67548
1.5380859	65.319016
1.5405273	64.74484
1.5429688	61.981888
1.5454102	57.93188
1.5478516	53.893085
1.550293	50.63715
1.5527344	47.933605
1.5551758	45.073242
1.5576172	41.734177
1.5600586	38.212284
1.5625	34.946007
1.5649414	31.93876
1.5673828	28.76716
1.5698242	25.094912
1.5722656	21.091898
1.574707	17.371054
1.5771484	14.601919
1.5795898	13.069213
1.5820312	12.607725
1.5844727	13.011856
1.5869141	14.125689
1.5893555	15.527674
1.5917969	16.906746
1.5942383	18.836088
1.5966797	22.186035
1.5991211	26.33422
1.6015625	29.34133
1.6040039	29.799414
1.6064453	27.96955
1.6088867	25.4573
1.6113281	23.41009
1.6137695	21.70287
1.6162109	21.534416
1.6186523	26.090265
1.6210938	34.739323
1.6235352	43.71777
1.6259766	51.203236
1.628418	58.337963
1.6308594	66.94471
1.6333008	76.45633
1.6357422	84.2153
1.6381836	88.28509
1.640625	89.089615
1.6430664	88.73866
1.6455078	88.885574
1.6479492	89.36869
1.6503906	89.066536
1.652832	87.3957
1.6552734	84.6238
1.6577148	81.23598
1.6601562	77.46834
1.6625977	73.36845
1.6650391	68.96452
1.6674805	64.33656
1.6699219	59.89406
1.6723633	56.895927
1.6748047	57.316017
1.6772461	62.44783
1.6796875	71.85096
1.6821289	84.13763
1.6845703	97.82749
1.6870117	111.39934
1.6894531	123.34863
1.6918945	132.58388
1.6943359	138.6565
1.6967773	141.52914
1.6992188	141.11324
1.7016602	137.0123
1.7041016	128.7618
1.706543	116.37897
1.7089844	100.89296
1.7114258	84.439026
1.7138672	69.775925
1.7163086	59.516216
1.71875	55.402798
1.7211914	57.38192
1.7236328	63.21193
1.7260742	69.83216
1.7285156	75.122314
1.730957	78.4675
1.7333984	80.04821
1.7358398	79.69518
1.7382812	76.60314
1.7407227	70.18715
1.7431641	60.956306
1.7456055	50.575397
1.7480469	41.29567
1.7504883	35.698544
1.7529297	36.302147
1.7553711	43.260418
1.7578125	53.853653
1.7602539	65.15921
1.7626953	75.29854
1.7651367	83.41859
1.7675781	89.41383
1.7700195	93.60507
1.7724609	96.53456
1.7749023	98.905
1.7773438	101.59575
1.7797852	105.65027
1.7822266	112.12461
1.784668	121.80287
1.7871094	134.87596
1.7895508	150.71973
1.7919922	167.92717
1.7944336	184.6864
1.796875	199.42192
1.7993164	211.35976
1.8017578	220.59113
1.8041992	227.54523
1.8066406	232.27866
1.809082	234.20502
1.8115234	232.48898
1.8139648	226.72939
1.8164062	217.33311
1.8188477	205.28197
1.8212891	191.42984
1.8237305	175.92496
1.8261719	158.36063
1.8286133	138.54842
1.8310547	117.19123
1.8334961	95.83864
1.8359375	76.22147
1.8383789	59.66323
1.8408203	47.360126
1.8432617	41.184868
1.8457031	42.30448
1.8481445	48.33926
1.8505859	55.459137
1.8530273	61.394436
1.8554688	65.51925
1.8579102	68.03905
1.8603516	69.43146
1.862793	70.44654
1.8652344	72.29841
1.8676758	76.28853
1.8701172	82.9543
1.8725586	91.747025
1.875	101.50102
1.8774414	110.92952
1.8798828	118.86518
1.8823242	124.46485
1.8847656	127.41174
1.887207	127.8077
1.8896484	125.76593
1.8920898	121.22007
1.8945312	114.28613
1.8969727	105.78663
1.8994141	97.278984
1.9018555	90.411285
1.9042969	86.18766
1.9067383	84.72485
1.9091797	85.35312
1.9116211	86.843834
1.9140625	87.99105
1.9165039	88.42316
1.9189453	88.796616
1.9213867	89.87645
1.9238281	91.41084
1.9262695	92.35107
1.9287109	92.15424
1.9311523	91.60911
1.9335938	92.323524
1.9360352	95.42023
1.9384766	100.67883
1.940918	106.74685
1.9433594	111.87519
1.9458008	114.7395
1.9482422	115.06938
1.9506836	113.62842
1.953125	111.36606
1.9555664	108.55075
1.9580078	105.07581
1.9604492	101.56265
1.9628906	99.56492
1.965332	100.30737
1.9677734	103.70919
1.9702148	109.098
1.9726562	116.0939
1.9750977	124.03071
1.9775391	131.11621
1.9799805	134.9575
1.9824219	133.94373
1.9848633	128.0953
1.9873047	118.85812
1.9897461	108.16237
1.9921875	97.53765
1.9946289	87.79783
1.9970703	79.187965
1.9995117	71.61062
2.0019531	64.7513
2.0043945	58.408695
2.006836	52.992245
2.0092773	49.66954
2.0117188	49.511486
2.0141602	52.1168
2.0166016	55.71688
2.019043	58.62516
2.0214844	60.15601
2.0239258	60.51944
2.0263672	60.13678
2.0288086	59.174397
2.03125	57.83448
2.0336914	57.046116
2.0361328	58.22433
2.0385742	61.676243
2.0410156	65.868935
2.043457	69.078766
2.0458984	71.38446
2.0483398	74.80917
2.0507812	81.11899
2.0532227	89.51464
2.055664	97.370895
2.0581055	102.67917
2.0605469	105.32841
2.0629883	106.70472
2.0654297	108.20606
2.067871	109.95218
2.0703125	110.7953
2.072754	109.38071
2.0751953	105.10067
2.0776367	98.37355
2.0800781	90.369896
2.0825195	82.40602
2.084961	75.331055
2.0874023	69.33543
2.0898438	64.33253
2.0922852	60.402454
2.0947266	57.67972
2.097168	55.903187
2.0996094	54.38863
2.1020508	52.566803
2.1044922	50.362076
2.1069336	48.06454
2.109375	46.049435
2.1118164	44.836517
2.1142578	45.303467
2.1166992	48.200077
2.1191406	53.13129
2.121582	58.518982
2.1240234	62.718277
2.1264648	64.98943
2.1289062	65.70109
2.1313477	65.85362
2.133789	66.22834
2.1362305	66.8088
2.1386719	66.94928
2.1411133	65.972435
2.1435547	63.710155
2.145996	60.712196
2.1484375	58.080013
2.150879	56.867924
2.1533203	57.337757
2.1557617	58.887775
2.1582031	60.843605
2.1606445	63.218616
2.163086	66.72528
2.1655273	72.042114
2.1679688	78.99742
2.1704102	86.523125
2.1728516	93.32855
2.175293	98.64043
2.1777344	102.52171
2.1801758	105.62973
2.1826172	108.53247
2.1850586	111.04508
2.1875	112.19269
2.1899414	110.8326
2.1923828	106.39367
2.1948242	99.30245
2.1972656	90.871666
2.199707	82.76922
2.2021484	76.32146
2.2045898	72.07672
2.2070312	69.889755
2.2094727	69.24633
2.211914	69.43114
2.2143555	69.662445
2.2167969	69.38594
2.2192383	68.51039
2.2216797	67.30517
2.224121	66.011665
2.2265625	64.620995
2.229004	63.00881
2.2314453	61.087074
2.2338867	58.70945
2.2363281	55.561523
2.2387695	51.443035
2.241211	46.78328
2.2436523	42.78297
2.2460938	40.7776
2.2485352	41.387333
2.2509766	44.605595
2.253418	50.370808
2.2558594	58.20913
2.2583008	66.70567
2.2607422	74.01071
2.2631836	78.95371
2.265625	81.80522
2.2680664	84.10408
2.2705078	87.407974
2.2729492	91.87511
2.2753906	96.20902
2.277832	98.891525
2.2802734	99.308556
2.2827148	98.06034
2.2851562	96.60899
2.2875977	96.53289
2.290039	98.612526
2.2924805	102.29382
2.2949219	105.99255
2.2973633	108.01997
2.2998047	107.46104
2.302246	104.66578
2.3046875	101.10642
2.307129	98.488716
2.3095703	97.402405
2.3120117	96.69916
2.3144531	94.362465
2.3168945	88.93375
2.319336	80.31722
2.3217773	69.71072
2.3242188	58.977444
2.3266602	49.839104
2.3291016	43.234966
2.331543	39.142048
2.3339844	36.886227
2.3364258	35.62707
2.3388672	34.714188
2.3413086	33.841026
2.34375	32.93932
2.3461914	31.958918
2.3486328	30.867313
2.3510742	29.957031
2.3535156	30.050228
2.355957	32.0523
2.3583984	36.21294
2.3608398	42.127327
2.3632812	49.25858
2.3657227	57.01715
2.368164	64.62662
2.3706055	71.28935
2.3730469	76.615555
2.3754883	80.925026
2.3779297	85.05511
2.380371	89.69393
2.3828125	94.78626
2.385254	99.53517
2.3876953	102.98209
2.3901367	104.64926
2.3925781	104.85644
2.3950195	104.59849
2.397461	104.96664
2.3999023	106.43871
2.4023438	108.58622
2.4047852	110.53533
2.4072266	111.75272
2.409668	112.44659
2.4121094	113.16656
2.4145508	113.9574
2.4169922	113.96414
2.4194336	112.05531
2.421875	107.87457
2.4243164	102.35389
2.4267578	97.23256
2.4291992	93.86891
2.4316406	92.357635
2.434082	91.866776
2.4365234	91.63239
2.4389648	91.61818
2.4414062	92.602585
2.4438477	95.793015
2.446289	101.88549
2.4487305	109.96805
2.4511719	117.57592
2.4536133	122.09529
2.4560547	122.44896
2.458496	120.00168
2.4609375	117.93784
2.463379	118.7889
2.4658203	121.97811
2.4682617	124.33283
2.4707031	122.83485
2.4731445	116.57865
2.475586	107.03794
2.4780273	97.15166
2.4804688	89.549545
2.4829102	84.76654
2.4853516	81.09774
2.487793	76.35952
2.4902344	69.55127
2.4926758	61.296444
2.4951172	53.357697
2.4975586	47.559402
2.5	44.44609
2.5024414	42.987213
2.5048828	42.015293
2.5073242	41.72946
2.5097656	43.690823
2.512207	48.9855
2.5146484	56.52503
2.5170898	63.854984
2.5195312	68.98803
2.5219727	71.54965
2.524414	73.02234
2.5268555	75.68336
2.5292969	80.41919
2.5317383	85.69353
2.5341797	89.071846
2.536621	89.22798
2.5390625	86.665474
2.541504	83.002106
2.5439453	79.54713
2.5463867	76.42298
2.5488281	73.091064
2.5512695	69.51851
2.553711	66.54637
2.5561523	65.151245
2.5585938	65.41481
2.5610352	66.41803
2.5634766	67.10716
2.565918	67.11777
2.5683594	66.898056
2.5708008	67.17621
2.5732422	68.14507
2.5756836	69.16574
2.578125	69.31954
2.5805664	68.22774
2.5830078	66.43351
2.5854492	65.055405
2.5878906	64.92316
2.590332	65.87454
2.5927734	66.9065
2.5952148	66.94893
2.5976562	65.51079
2.6000977	62.897316
2.602539	60.00745
2.6049805	57.709442
2.6074219	56.143734
2.6098633	54.653973
2.6123047	52.550526
2.614746	49.94192
2.6171875	47.86852
2.619629	47.49493
2.6220703	48.949017
2.6245117	51.218266
2.6269531	53.170456
2.6293945	54.425175
2.631836	55.454353
2.6342773	57.102165
2.6367188	59.869347
2.6391602	63.461163
2.6416016	66.95878
2.644043	69.39531
2.6464844	70.28047
2.6489258	69.85224
2.6513672	68.97982
2.6538086	68.66228
2.65625	69.36188
2.6586914	70.71761
2.6611328	71.949875
2.6635742	72.48287
2.6660156	72.22776
2.668457	71.38615
2.6708984	70.04864
2.6733398	68.03483
2.6757812	65.111084
2.6782227	61.356087
2.680664	57.253963
2.6831055	53.399166
2.6855469	50.128967
2.6879883	47.469635
2.6904297	45.42323
2.692871	44.188873
2.6953125	44.095604
2.697754	45.528614
2.7001953	48.843246
2.7026367	54.07086
2.7050781	60.575676
2.7075195	67.262726
2.709961	73.227486
2.7124023	78.23186
2.7148438	82.60462
2.7172852	86.69851
2.7197266	90.4529
2.722168	93.48532
2.7246094	95.502945
2.7270508	96.495255
2.7294922	96.59384
2.7319336	95.88024
2.734375	94.43791
2.7368164	92.61057
2.7392578	91.05218
2.7416992	90.40997
2.7441406	90.83137
2.746582	91.79857
2.7490234	92.47048
2.7514648	92.16265
2.7539062	90.62482
2.7563477	88.05597
2.758789	84.97381
2.7612305	82.01235
2.7636719	79.64591
2.7661133	77.939575
2.7685547	76.52836
2.770996	74.915375
2.7734375	72.890305
2.775879	70.74672
2.7783203	69.128136
2.7807617	68.58315
2.7832031	69.18211
2.7856445	70.53247
2.788086	72.12755
2.7905273	73.68096
2.7929688	75.1914
2.7954102	76.77902
2.7978516	78.439545
2.800293	79.90623
2.8027344	80.75019
2.8051758	80.68639
2.8076172	79.89439
2.8100586	79.066605
2.8125	78.9739
2.8149414	79.76447
2.8173828	80.69086
2.8198242	80.68303
2.8222656	79.26863
2.824707	77.02403
2.8271484	75.19063
2.8295898	74.588165
2.8320312	74.82143
2.8344727	74.68487
2.836914	73.251915
2.8393555	70.554184
2.8417969	67.49849
2.8442383	65.24879
2.8466797	64.4858
2.849121	65.00794
2.8515625	65.94285
2.854004	66.334404
2.8564453	65.677826
2.8588867	64.17196
2.8613281	62.48398
2.8637695	61.02562
2.866211	59.314857
2.8686523	56.225323
2.8710938	51.028164
2.8735352	44.388817
2.8759766	38.673615
2.878418	36.576565
2.8808594	38.07882
2.8833008	40.467403
2.8857422	41.823227
2.8881836	42.527454
2.890625	44.306965
2.8930664	48.011463
2.8955078	52.391357
2.8979492	55.305794
2.9003906	55.356056
2.902832	52.53945
2.9052734	48.09009
2.9077148	43.71573
2.9101562	40.445377
2.9125977	37.93915
2.915039	35.169724
2.9174805	31.692041
2.9199219	28.240524
2.9223633	26.320993
2.9248047	26.791862
2.927246	28.853197
2.9296875	31.071407
2.932129	32.61684
2.9345703	33.439995
2.9370117	33.922623
2.9394531	34.481903
2.9418945	35.31114
2.944336	36.327293
2.9467773	37.300087
2.9492188	38.072674
2.9516602	38.759506
2.9541016	39.746925
2.956543	41.35089
2.9589844	43.422306
2.9614258	45.402412
2.9638672	46.833984
2.9663086	47.73503
2.96875	48.492756
2.9711914	49.43738
2.9736328	50.609955
2.9760742	51.9504
2.9785156	53.496967
2.980957	55.237423
2.9833984	56.86862
2.9858398	57.89181
2.9882812	58.02649
2.9907227	57.4965
2.993164	56.921204
2.9956055	56.935387
2.9980469	57.858425
3.0004883	59.61554
3.0029297	61.8062
3.005371	63.820286
3.0078125	65.067764
3.010254	65.309586
3.0126953	64.82949
3.0151367	64.22501
3.0175781	63.898556
3.0200195	63.716534
3.022461	63.171738
3.0249023	61.841354
3.0273438	59.683662
3.0297852	57.025127
3.0322266	54.35792
3.034668	52.055885
3.0371094	50.114517
3.0395508	48.10794
3.0419922	45.48139
3.0444336	41.996338
3.046875	37.985508
3.0493164	34.22297
3.0517578	31.45766
3.0541992	29.919975
3.0566406	29.294167
3.059082	29.141842
3.0615234	29.263542
3.0639648	29.731224
3.0664062	30.74353
3.0688477	32.474407
3.071289	34.99894
3.0737305	38.33325
3.0761719	42.45861
3.0786133	47.232765
3.0810547	52.250748
3.083496	56.808353
3.0859375	60.036007
3.088379	61.144634
3.0908203	59.69042
3.0932617	55.80958
3.0957031	50.34025
3.0981445	44.71525
3.100586	40.43988
3.1030273	38.17049
3.1054688	37.272697
3.1079102	36.633537
3.1103516	35.68662
3.112793	34.593475
3.1152344	33.764492
3.1176758	33.392895
3.1201172	33.425385
3.1225586	33.779865
3.125	34.367207
3.1274414	34.968197
3.1298828	35.29635
3.1323242	35.22812
3.1347656	34.863956
3.137207	34.33479
3.1396484	33.69092
3.1420898	33.13032
3.1445312	33.263416
3.1469727	34.789
3.149414	37.67676
3.1518555	40.96813
3.1542969	43.4933
3.1567383	44.582504
3.1591797	44.29556
3.161621	43.285946
3.1640625	42.400257
3.166504	42.185658
3.1689453	42.587658
3.1713867	43.10932
3.1738281	43.271645
3.1762695	42.977695
3.178711	42.54363
3.1811523	42.375816
3.1835938	42.532513
3.1860352	42.571877
3.1884766	41.85119
3.190918	39.9655
3.1933594	37.020817
3.1958008	33.655712
3.1982422	30.834152
3.2006836	29.430868
3.203125	29.750883
3.2055664	31.456482
3.2080078	33.91843
3.2104492	36.502068
3.2128906	38.64423
3.215332	39.937424
3.2177734	40.272675
3.2202148	39.87722
3.2226562	39.152863
3.2250977	38.386955
3.227539	37.607258
3.2299805	36.730366
3.2324219	35.79611
3.2348633	34.9916
3.2373047	34.435318
3.239746	34.00476
3.2421875	33.417828
3.244629	32.4707
3.2470703	31.191467
3.2495117	29.860882
3.2519531	28.900606
3.2543945	28.618298
3.256836	28.89382
3.2592773	29.154528
3.2617188	28.808254
3.2641602	27.800728
3.2666016	26.866034
3.269043	27.069054
3.2714844	28.713127
3.2739258	30.962523
3.2763672	32.774204
3.2788086	33.75574
3.28125	34.22619
3.2836914	34.69761
3.2861328	35.252365
3.2885742	35.397743
3.2910156	34.517994
3.293457	32.43258
3.2958984	29.728186
3.2983398	27.750963
3.3007812	27.93581
3.3032227	30.49422
3.305664	34.18572
3.3081055	37.482952
3.3105469	39.36406
3.3129883	39.478687
3.3154297	38.104416
3.317871	36.000618
3.3203125	34.097607
3.322754	33.047173
3.3251953	32.89846
3.3276367	33.223812
3.3300781	33.576904
3.3325195	33.794033
3.334961	33.979244
3.3374023	34.268024
3.3398438	34.57348
3.3422852	34.54252
3.3447266	33.75424
3.347168	32.017773
3.3496094	29.569727
3.3520508	27.060196
3.3544922	25.265863
3.3569336	24.601858
3.359375	24.863255
3.3618164	25.53031
3.3642578	26.206783
3.3666992	26.731964
3.3691406	27.05121
3.371582	27.070028
3.3740234	26.608541
3.3764648	25.445105
3.3789062	23.426857
3.3813477	20.641302
3.383789	17.666332
3.3862305	15.835092
3.3886719	16.711954
3.3911133	20.280619
3.3935547	25.09177
3.395996	29.871313
3.3984375	33.872204
3.400879	36.694977
3.4033203	38.17304
3.4057617	38.37826
3.4082031	37.702362
3.4106445	36.90084
3.413086	36.856125
3.4155273	38.00412
3.4179688	39.922836
3.4204102	41.648514
3.4228516	42.350098
3.425293	41.751858
3.4277344	40.188595
3.4301758	38.37803
3.4326172	37.02149
3.4350586	36.401894
3.4375	36.256184
3.4399414	36.011208
3.4423828	35.165276
3.4448242	33.55968
3.4472656	31.488926
3.449707	29.592274
3.4521484	28.461079
3.4545898	28.108147
3.4570312	27.880167
3.4594727	27.031326
3.461914	25.398056
3.4643555	23.69247
3.4667969	23.097387
3.4692383	24.052687
3.4716797	25.64221
3.474121	26.664473
3.4765625	26.773645
3.479004	26.714586
3.4814453	27.683653
3.4838867	30.115929
3.4863281	33.23603
3.4887695	35.89357
3.491211	37.392834
3.4936523	37.720936
3.4960938	37.375595
3.4985352	36.9686
3.5009766	36.81834
3.503418	36.833103
3.5058594	36.758373
3.5083008	36.4899
3.5107422	36.147488
3.5131836	35.930416
3.515625	35.936035
3.5180664	36.103004
3.5205078	36.258835
3.5229492	36.213684
3.5253906	35.862293
3.527832	35.285816
3.5302734	34.76571
3.5327148	34.60966
3.5351562	34.864292
3.5375977	35.199898
3.540039	35.15069
3.5424805	34.50578
3.5449219	33.52251
3.5473633	32.788136
3.5498047	32.780006
3.552246	33.47305
3.5546875	34.383663
3.557129	34.943016
3.5595703	34.826824
3.5620117	34.139645
3.5644531	33.46087
3.5668945	33.59911
3.569336	34.949787
3.5717773	37.00927
3.5742188	38.71567
3.5766602	39.22374
3.5791016	38.416588
3.581543	36.93745
3.5839844	35.748363
3.5864258	35.392086
3.5888672	35.599777
3.5913086	35.69805
3.59375	35.2816
3.5961914	34.489258
3.5986328	33.80519
3.6010742	33.6162
3.6035156	33.882675
3.605957	34.211887
3.6083984	34.19996
3.6108398	33.71367
3.6132812	32.93301
3.6157227	32.182995
3.618164	31.663834
3.6206055	31.279549
3.6230469	30.719427
3.6254883	29.701433
3.6279297	28.176311
3.630371	26.380585
3.6328125	24.718956
3.635254	23.519926
3.6376953	22.800451
3.6401367	22.270777
3.6425781	21.587088
3.6450195	20.601465
3.647461	19.424746
3.6499023	18.288279
3.6523438	17.321114
3.6547852	16.437077
3.6572266	15.451378
3.659668	14.294965
3.6621094	13.114202
3.6645508	12.184757
3.6669922	11.705747
3.6694336	11.683594
3.671875	12.03114
3.6743164	12.691917
3.6767578	13.573124
3.6791992	14.433809
3.6816406	14.945307
3.684082	14.911211
3.6865234	14.451374
3.6889648	14.002507
3.6914062	14.014455
3.6938477	14.533094
3.696289	15.1939
3.6987305	15.627427
3.7011719	15.74297
3.7036133	15.682515
3.7060547	15.601822
3.708496	15.490877
3.7109375	15.21401
3.713379	14.686438
3.7158203	13.993923
3.7182617	13.377583
3.7207031	13.123949
3.7231445	13.402628
3.725586	14.12154
3.7280273	14.921836
3.7304688	15.347908
3.7329102	15.082608
3.7353516	14.148581
3.737793	13.01507
3.7402344	12.451128
3.7426758	12.89881
3.7451172	13.951593
3.7475586	14.807398
3.75	14.916504
3.7524414	14.155518
3.7548828	12.763003
3.7573242	11.204998
3.7597656	9.985796
3.762207	9.375004
3.7646484	9.216033
3.7670898	9.104797
3.7695312	8.735244
3.7719727	8.093675
3.774414	7.4854503
3.7768555	7.349264
3.7792969	7.7914762
3.7817383	8.406324
3.7841797	8.6832905
3.786621	8.353993
3.7890625	7.501622
3.791504	6.606003
3.7939453	6.432534
3.7963867	7.326122
3.7988281	8.778725
3.8012695	10.160709
3.803711	11.156543
3.8061523	11.72376
3.8085938	11.95896
3.8110352	11.966281
3.8134766	11.778692
3.815918	11.361212
3.8183594	10.674613
3.8208008	9.751433
3.8232422	8.75784
3.8256836	7.986208
3.828125	7.674625
3.8305664	7.749741
3.8330078	7.875731
3.8354492	7.7627573
3.8378906	7.326343
3.840332	6.64639
3.8427734	5.8700895
3.8452148	5.1790514
3.8476562	4.8344083
3.8500977	5.0989604
3.852539	5.941297
3.8549805	7.0327935
3.8574219	8.049899
3.8598633	8.815704
3.8623047	9.297846
3.864746	9.555258
3.8671875	9.673688
3.869629	9.725308
3.8720703	9.763607
3.8745117	9.824059
3.8769531	9.91546
3.8793945	10.016984
3.881836	10.097652
3.8842773	10.143498
3.8867188	10.160377
3.8891602	10.151777
3.8916016	10.101363
3.894043	9.985031
3.8964844	9.80559
3.8989258	9.629942
3.9013672	9.596053
3.9038086	9.848889
3.90625	10.4148
3.9086914	11.138309
3.9111328	11.760998
3.9135742	12.058652
3.9160156	11.936222
3.918457	11.453159
3.9208984	10.792484
3.9233398	10.184929
3.9257812	9.81013
3.9282227	9.725339
3.930664	9.878222
3.9331055	10.179838
3.9355469	10.553166
3.9379883	10.926984
3.9404297	11.213242
3.942871	11.31049
3.9453125	11.131635
3.947754	10.634857
3.9501953	9.837919
3.9526367	8.821245
3.9550781	7.727253
3.9575195	6.757406
3.959961	6.1203017
3.9624023	5.894617
3.9648438	5.9280114
3.9672852	5.9507146
3.9697266	5.7631273
3.972168	5.323148
3.9746094	4.748878
3.9770508	4.2657943
3.9794922	4.066025
3.9819336	4.1337376
3.984375	4.2726164
3.9868164	4.302524
3.9892578	4.1607103
3.9916992	3.9034731
3.9941406	3.6720974
3.996582	3.6163707
3.9990234	3.7717614
4.001465	4.021059
4.0039062	4.2004538
4.0063477	4.200981
4.008789	3.9970815
4.0112305	3.640481
4.013672	3.2468524
4.0161133	2.9755619
4.0185547	2.9686203
4.020996	3.2511523
4.0234375	3.7232215
4.025879	4.2481084
4.0283203	4.700047
4.0307617	4.974174
4.033203	5.0047874
4.0356445	4.7900558
4.038086	4.4099874
4.0405273	4.0161543
4.0429688	3.7681544
4.04541	3.7212155
4.0478516	3.7859807
4.050293	3.8294425
4.0527344	3.781909
4.055176	3.658082
4.057617	3.5173297
4.0600586	3.403011
4.0625	3.305109
4.0649414	3.175135
4.067383	2.9701445
4.069824	2.682019
4.0722656	2.339875
4.074707	1.9954062
4.0771484	1.7020907
4.07959	1.4966949
4.0820312	1.3898668
4.0844727	1.3718916
4.086914	1.4222677
4.0893555	1.5104545
4.091797	1.5946914
4.0942383	1.6292171
4.0966797	1.5765758
4.099121	1.4194666
4.1015625	1.1706927
4.104004	0.88616997
4.1064453	0.6913769
4.1088867	0.73046774
4.111328	0.93015826
4.1137695	1.1287521
4.116211	1.248661
4.1186523	1.2684737
4.1210938	1.1984786
4.123535	1.0742788
4.1259766	0.95842046
4.128418	0.92980295
4.1308594	1.0223022
4.133301	1.1828429
4.135742	1.3308917
4.1381836	1.4094726
4.140625	1.3940148
4.1430664	1.290201
4.145508	1.1279695
4.147949	0.94962543
4.1503906	0.7933779
4.152832	0.67830014
4.1552734	0.60470784
4.157715	0.57060796
4.1601562	0.57671213
4.1625977	0.6094874
4.165039	0.63859195
4.1674805	0.6370722
4.169922	0.5993326
4.1723633	0.54785866
4.1748047	0.5250073
4.177246	0.55618685
4.1796875	0.6187179
4.182129	0.6709092
4.1845703	0.6867982
4.1870117	0.6621626
4.189453	0.60835207
4.1918945	0.5426845
4.194336	0.47795743
4.1967773	0.4173859
4.1992188	0.35895702
4.20166	0.30479288
4.2041016	0.26377386
4.206543	0.24238391
4.2089844	0.23422891
4.211426	0.22778001
4.213867	0.2208417
4.2163086	0.22082926
4.21875	0.23107961
4.2211914	0.24272847
4.223633	0.24353679
4.226074	0.22942133
4.2285156	0.20814392
4.230957	0.19497748
4.2333984	0.19825244
4.23584	0.20993726
4.2382812	0.21809743
4.2407227	0.21958502
4.243164	0.2200099
4.2456055	0.22615334
4.248047	0.23833014
4.2504883	0.25093734
4.2529297	0.25872913
4.255371	0.2602827
4.2578125	0.25699246
4.260254	0.25021294
4.2626953	0.23951067
4.2651367	0.2231266
4.267578	0.20015085
4.2700195	0.17253673
4.272461	0.14534752
4.2749023	0.12509806
4.2773438	0.1150977
4.279785	0.11200532
4.2822266	0.10927061
4.284668	0.10294729
4.2871094	0.093204305
4.289551	0.083480425
4.291992	0.07807295
4.2944336	0.078779906
4.296875	0.08374639
4.2993164	0.09020027
4.301758	0.0962053
4.304199	0.09975935
4.3066406	0.09844426
4.309082	0.09037331
4.3115234	0.07630649
4.313965	0.062052988
4.3164062	0.05915703
4.3188477	0.07186764
4.321289	0.08983424
4.3237305	0.10413615
4.326172	0.11162987
4.3286133	0.11277545
4.3310547	0.10980479
4.333496	0.10486221
4.3359375	0.09907379
4.338379	0.09261138
4.3408203	0.08603594
4.3432617	0.08087941
4.345703	0.07848753
4.3481445	0.0782753
4.350586	0.07778128
4.3530273	0.074568994
4.3554688	0.06770178
4.35791	0.057992846
4.3603516	0.047518373
4.362793	0.038693998
4.3652344	0.033225093
4.367676	0.030864818
4.370117	0.030115008
4.3725586	0.0299629
4.375	0.030009441
4.3774414	0.029939799
4.379883	0.029268203
4.382324	0.02798959
4.3847656	0.026877288
4.387207	0.02706178
4.3896484	0.02860947
4.39209	0.030333739
4.3945312	0.030941121
4.3969727	0.029868873
4.399414	0.027432393
4.4018555	0.024436338
4.404297	0.021750085
4.4067383	0.019919137
4.4091797	0.019083735
4.411621	0.019131115
4.4140625	0.019691667
4.416504	0.02020789
4.4189453	0.020125655
4.4213867	0.019232364
4.423828	0.017656783
4.4262695	0.015848171
4.428711	0.014420981
4.4311523	0.013751913
4.4335938	0.013851346
4.436035	0.01425274
4.4384766	0.014548622
4.440918	0.014490096
4.4433594	0.014154135
4.445801	0.013713068
4.448242	0.013335866
4.4506836	0.013080914
4.453125	0.01281425
4.4555664	0.012467005
4.458008	0.012016932
4.460449	0.011589659
4.4628906	0.011261272
4.465332	0.010999677
4.4677734	0.010760728
4.470215	0.010427541
4.4726562	0.010053171
4.4750977	0.009597305
4.477539	0.0090769185
4.4799805	0.008446507
4.482422	0.00772846
4.4848633	0.0069876797
4.4873047	0.0062975483
4.489746	0.005719529
4.4921875	0.005238294
4.494629	0.004790883
4.4970703	0.0043604714
4.4995117	0.0040022084
4.501953	0.003842394
4.5043945	0.003918867
4.506836	0.004114786
4.5092773	0.004323637
4.5117188	0.004434463
4.51416	0.0044195834
4.5166016	0.004287031
4.519043	0.004089613
4.5214844	0.003817381
4.523926	0.0035006152
4.526367	0.0031545365
4.5288086	0.0027978118
4.53125	0.00245281
4.5336914	0.0021262316
4.536133	0.0018372926
4.538574	0.0015993668
4.5410156	0.0014237526
4.543457	0.0013474548
4.5458984	0.001361891
4.54834	0.0014584267
4.5507812	0.0015824145
4.5532227	0.0016819588
4.555664	0.0016931309
4.5581055	0.001580342
4.560547	0.001347521
4.5629883	0.0010321182
4.5654297	7.378637E-4
4.567871	5.5242743E-4
4.5703125	5.51951E-4
4.572754	6.063491E-4
4.5751953	5.990359E-4
4.5776367	5.3722557E-4
4.580078	4.5372645E-4
4.5825195	3.905505E-4
4.584961	3.7295904E-4
4.5874023	3.8194258E-4
4.5898438	3.7187812E-4
4.592285	3.5655792E-4
4.5947266	3.2714117E-4
4.597168	3.032441E-4
4.5996094	2.5213984E-4
4.602051	1.9997166E-4
4.604492	1.3477278E-4
4.6069336	9.1661146E-5
4.609375	1.0693135E-4
4.6118164	1.5374656E-4
4.614258	1.8041904E-4
4.616699	2.0265713E-4
4.6191406	2.3115256E-4
4.621582	2.6700078E-4
4.6240234	3.1918281E-4
4.626465	3.654253E-4
4.6289062	4.0229125E-4
4.6313477	4.40456E-4
4.633789	4.6625652E-4
4.6362305	4.8092185E-4
4.638672	4.6651613E-4
4.6411133	4.4870604E-4
4.6435547	4.183706E-4
4.645996	3.709173E-4
4.6484375	3.413197E-4
4.650879	3.18622E-4
4.6533203	2.9983424E-4
4.6557617	2.9446697E-4
4.658203	2.768498E-4
4.6606445	2.7112168E-4
4.663086	2.516197E-4
4.6655273	2.3926274E-4
4.6679688	2.2685424E-4
4.67041	2.3546294E-4
4.6728516	2.283854E-4
4.675293	2.3504726E-4
4.6777344	2.3343095E-4
4.680176	2.3110393E-4
4.682617	2.2189737E-4
4.6850586	1.9883687E-4
4.6875	1.754346E-4
4.6899414	1.6837816E-4
4.692383	1.8252678E-4
4.694824	2.3506864E-4
4.6972656	2.6345614E-4
4.699707	2.867455E-4
4.7021484	2.9250197E-4
4.70459	2.7296992E-4
4.7070312	2.3771962E-4
4.7094727	1.7955275E-4
4.711914	1.3212848E-4
4.7143555	7.662523E-5
4.716797	3.87863E-5
4.7192383	4.6663627E-5
4.7216797	7.837323E-5
4.724121	9.870414E-5
4.7265625	1.1429077E-4
4.729004	1.203342E-4
4.7314453	1.2630603E-4
4.7338867	1.2809264E-4
4.736328	1.3158759E-4
4.7387695	1.3630444E-4
4.741211	1.5047393E-4
4.7436523	1.4416168E-4
4.7460938	1.4224602E-4
4.748535	1.3571669E-4
4.7509766	1.0756338E-4
4.753418	9.607246E-5
4.7558594	8.0174264E-5
4.758301	6.933052E-5
4.760742	6.649511E-5
4.7631836	6.1013332E-5
4.765625	6.0825732E-5
4.7680664	6.852783E-5
4.770508	5.6447978E-5
4.772949	6.968046E-5
4.7753906	6.7679575E-5
4.777832	6.215089E-5
4.7802734	5.7993795E-5
4.782715	5.2133113E-5
4.7851562	5.9539227E-5
4.7875977	7.311106E-5
4.790039	8.8860856E-5
4.7924805	1.0640237E-4
4.794922	1.1988639E-4
4.7973633	1.2657458E-4
4.7998047	1.3146504E-4
4.802246	1.3336453E-4
4.8046875	1.2140719E-4
4.807129	1.2121505E-4
4.8095703	1.1036892E-4
4.8120117	1.0325296E-4
4.814453	9.0032045E-5
4.8168945	8.7658525E-5
4.819336	7.885565E-5
4.8217773	7.983528E-5
4.8242188	7.031383E-5
4.82666	6.80466E-5
4.8291016	6.7155226E-5
4.831543	5.6702716E-5
4.8339844	6.758167E-5
4.836426	6.013459E-5
4.838867	5.682908E-5
4.8413086	5.8636164E-5
4.84375	5.2627616E-5
4.8461914	5.749446E-5
4.848633	4.0883166E-5
4.851074	5.2898213E-5
4.8535156	4.4826345E-5
4.855957	4.8559916E-5
4.8583984	5.1005976E-5
4.86084	4.3819236E-5
4.8632812	4.324423E-5
4.8657227	3.8143156E-5
4.868164	3.696543E-5
4.8706055	3.7535538E-5
4.873047	3.5167704E-5
4.8754883	3.4139146E-5
4.8779297	3.211377E-5
4.880371	3.7497506E-5
4.8828125	4.3381177E-5
4.885254	4.7053174E-5
4.8876953	5.064976E-5
4.8901367	5.8488156E-5
4.892578	5.307093E-5
4.8950195	5.185463E-5
4.897461	4.3026674E-5
4.8999023	5.077579E-5
4.9023438	4.467921E-5
4.904785	4.114218E-5
4.9072266	3.508692E-5
4.909668	2.9799843E-5
4.9121094	2.4782325E-5
4.914551	2.039704E-5
4.916992	1.6759182E-5
4.9194336	1.8969373E-5
4.921875	1.1252751E-5
4.9243164	2.3213304E-5
4.926758	2.3873119E-5
4.929199	2.4215444E-5
4.9316406	1.2463615E-5
4.934082	1.6855807E-5
4.9365234	1.4742831E-5
4.938965	1.0947126E-5
4.9414062	1.064896E-5
4.9438477	7.627308E-6
4.946289	1.2085164E-5
4.9487305	1.0373812E-5
4.951172	1.4059703E-5
4.9536133	1.1951943E-5
4.9560547	1.1164509E-5
4.958496	1.038122E-5
4.9609375	3.6144213E-6
4.963379	1.3636903E-5
4.9658203	1.1426001E-5
4.9682617	7.680299E-6
4.970703	1.3782327E-5
4.9731445	5.034337E-6
4.975586	9.444642E-6
4.9780273	8.275203E-6
4.9804688	1.0145076E-5
4.98291	4.4730423E-6
4.9853516	9.113331E-6
4.987793	8.449526E-6
4.9902344	8.977877E-6
4.992676	8.30669E-6
4.995117	9.08225E-6
4.9975586	8.7917815E-6



DATASET #4

Name: Smoothed EAS, b=188.500000 (cm/s)
Num Points: 2044
Info: 

X, Y Data:
0.009765625	1.4401321
0.012207031	2.182277
0.014648438	2.1621761
0.017089844	2.0496712
0.01953125	1.7649294
0.021972656	1.5672724
0.024414062	1.3652983
0.026855469	1.3444649
0.029296875	1.9686112
0.03173828	2.0641973
0.034179688	3.2686472
0.036621094	3.3160317
0.0390625	3.923451
0.041503906	4.9548316
0.043945312	5.8865504
0.04638672	5.8866973
0.048828125	6.720694
0.05126953	7.6599026
0.053710938	8.603399
0.056152344	9.514705
0.05859375	10.3706
0.061035156	12.697159
0.06347656	13.651863
0.06591797	14.713131
0.068359375	15.812807
0.07080078	16.923487
0.07324219	18.04442
0.075683594	19.161682
0.078125	20.220152
0.080566406	21.396416
0.08300781	21.203913
0.08544922	21.924444
0.087890625	22.460901
0.09033203	22.827194
0.09277344	23.044659
0.095214844	23.127588
0.09765625	23.076817
0.10009766	22.885683
0.10253906	22.547728
0.10498047	22.05462
0.10742188	21.393873
0.10986328	20.56602
0.11230469	19.601324
0.11474609	18.560144
0.1171875	17.53835
0.11962891	16.663143
0.12207031	16.061085
0.12451172	15.810748
0.12695312	15.909188
0.12939453	16.28036
0.13183594	16.818567
0.13427734	17.423777
0.13671875	18.002909
0.13916016	18.458363
0.14160156	18.7027
0.14404297	18.702667
0.14648438	18.502737
0.14892578	18.193184
0.15136719	17.856703
0.1538086	17.544792
0.15625	17.28293
0.1586914	17.075169
0.16113281	16.941153
0.16357422	16.986511
0.16601562	16.858484
0.16845703	16.823988
0.17089844	16.906841
0.17333984	17.100782
0.17578125	17.359207
0.17822266	17.611834
0.18066406	17.80273
0.18310547	17.928614
0.18554688	18.042988
0.18798828	18.207853
0.19042969	18.424545
0.1928711	18.611237
0.1953125	18.654041
0.1977539	18.482134
0.20019531	18.100176
0.20263672	17.562538
0.20507812	16.924606
0.20751953	16.221846
0.20996094	15.497872
0.21240234	14.852037
0.21484375	14.441518
0.21728516	14.39188
0.21972656	14.674333
0.22216797	15.095812
0.22460938	15.434736
0.22705078	15.575243
0.22949219	15.518586
0.2319336	15.294899
0.234375	14.891851
0.2368164	14.284915
0.23925781	13.526906
0.24169922	12.777726
0.24414062	12.600221
0.24658203	12.147579
0.24902344	11.983055
0.25146484	12.055788
0.25390625	12.2889
0.25634766	12.67393
0.25878906	13.312228
0.26123047	14.369787
0.26367188	15.962973
0.26611328	18.07476
0.2685547	20.581266
0.2709961	23.325699
0.2734375	26.143532
0.2758789	28.860992
0.2783203	31.339367
0.28076172	33.548084
0.28320312	35.564133
0.28564453	37.450146
0.28808594	39.11254
0.29052734	40.29897
0.29296875	40.759315
0.29541016	40.42442
0.29785156	39.45995
0.30029297	38.18587
0.30273438	36.95195
0.30517578	36.054035
0.3076172	35.7105
0.3100586	36.071857
0.3125	37.23633
0.3149414	39.273193
0.3173828	42.116615
0.31982422	45.656113
0.32226562	49.68328
0.32470703	52.01912
0.32714844	56.410675
0.32958984	60.959286
0.33203125	65.632614
0.33447266	70.34191
0.33691406	74.86781
0.33935547	78.884224
0.34179688	82.08402
0.34423828	84.314354
0.3466797	85.60097
0.3491211	86.02762
0.3515625	85.569725
0.3540039	84.03698
0.3564453	81.19363
0.35888672	76.96406
0.36132812	71.549446
0.36376953	65.35869
0.36621094	58.819206
0.36865234	52.233547
0.37109375	45.806164
0.37353516	39.809303
0.37597656	34.711624
0.37841797	31.09964
0.38085938	29.393116
0.38330078	29.541075
0.3857422	30.930738
0.3881836	32.61483
0.390625	33.727417
0.3930664	33.827496
0.3955078	33.036636
0.39794922	31.932238
0.40039062	31.276548
0.40283203	31.622498
0.40527344	33.029514
0.40771484	34.403896
0.41015625	36.178875
0.41259766	37.42715
0.41503906	37.756714
0.41748047	37.09448
0.41992188	35.640053
0.42236328	33.766254
0.4248047	31.923262
0.4272461	30.543852
0.4296875	29.93368
0.4321289	30.1713
0.4345703	31.0859
0.43701172	32.360847
0.43945312	33.719456
0.44189453	35.07187
0.44433594	36.539433
0.44677734	38.358765
0.44921875	40.706432
0.45166016	43.52147
0.45410156	46.43145
0.45654297	48.844143
0.45898438	50.16362
0.46142578	50.01863
0.4638672	48.39384
0.4663086	45.60704
0.46875	42.162457
0.4711914	38.58306
0.4736328	35.318283
0.47607422	32.724457
0.47851562	31.081224
0.48095703	30.542877
0.48339844	31.082216
0.48583984	32.49633
0.48828125	34.089954
0.49072266	36.141712
0.49316406	38.11432
0.49560547	39.68322
0.49804688	40.61745
0.5004883	40.83242
0.5029297	40.40508
0.5053711	39.541134
0.5078125	38.49762
0.5102539	37.491764
0.5126953	36.650986
0.5151367	36.03236
0.5175781	35.682343
0.52001953	35.679707
0.52246094	36.12507
0.52490234	37.07924
0.52734375	38.48688
0.52978516	40.138924
0.53222656	41.713455
0.53466797	42.876587
0.5371094	43.371296
0.5395508	43.06556
0.5419922	41.986237
0.5444336	40.327663
0.546875	38.39638
0.5493164	36.51136
0.5517578	34.92503
0.5541992	33.787502
0.5566406	33.164482
0.55908203	33.05022
0.56152344	33.39647
0.56396484	34.156548
0.56640625	35.325317
0.56884766	36.751472
0.57128906	38.779526
0.57373047	41.26474
0.5761719	44.094913
0.5786133	47.049706
0.5810547	49.821545
0.5834961	52.06596
0.5859375	53.464973
0.5883789	53.78711
0.5908203	52.93323
0.5932617	50.960926
0.5957031	48.081604
0.59814453	44.62675
0.60058594	40.987106
0.60302734	37.53779
0.60546875	34.56733
0.60791016	32.224083
0.61035156	30.49018
0.61279297	29.196527
0.6152344	28.084276
0.6176758	26.894842
0.6201172	25.448385
0.6225586	23.67652
0.625	21.615492
0.6274414	19.384842
0.6298828	17.157162
0.6323242	15.116432
0.6347656	13.410027
0.63720703	12.117979
0.63964844	11.252194
0.64208984	10.786564
0.64453125	10.692928
0.64697266	10.966946
0.64941406	11.609495
0.65185547	12.735764
0.6542969	14.466588
0.6567383	16.843191
0.6591797	19.806435
0.6616211	23.184702
0.6640625	26.718716
0.6665039	30.108252
0.6689453	33.06873
0.6713867	35.391075
0.6738281	36.974693
0.67626953	37.815563
0.67871094	37.97821
0.68115234	37.562744
0.68359375	36.676064
0.68603516	35.42432
0.68847656	33.931126
0.69091797	32.361485
0.6933594	30.926027
0.6958008	29.860382
0.6982422	29.393173
0.7006836	29.714193
0.703125	30.939936
0.7055664	33.077023
0.7080078	36.00464
0.7104492	39.491642
0.7128906	43.234447
0.71533203	46.897694
0.71777344	50.15753
0.72021484	52.76508
0.72265625	54.58043
0.72509766	55.55965
0.72753906	55.73778
0.72998047	55.22573
0.7324219	54.173656
0.7348633	52.947735
0.7373047	51.597965
0.7397461	50.250256
0.7421875	48.95062
0.7446289	47.664543
0.7470703	46.299496
0.7495117	44.74297
0.7519531	42.905655
0.75439453	40.759315
0.75683594	38.36025
0.75927734	35.850937
0.76171875	33.436714
0.76416016	31.340805
0.76660156	29.747883
0.76904297	28.752253
0.7714844	28.32736
0.7739258	28.329
0.7763672	28.536062
0.7788086	28.719828
0.78125	28.719242
0.7836914	28.494785
0.7861328	28.146597
0.7885742	27.90455
0.7910156	28.090734
0.79345703	29.048042
0.79589844	31.046892
0.79833984	34.218758
0.80078125	38.52695
0.80322266	43.7727
0.80566406	49.627766
0.80810547	55.679966
0.8105469	61.47935
0.8129883	66.02237
0.8154297	70.10447
0.8178711	72.975266
0.8203125	74.511284
0.8227539	74.6942
0.8251953	73.599556
0.8276367	71.383606
0.8300781	68.26559
0.83251953	64.50703
0.83496094	60.39064
0.83740234	56.199295
0.83984375	52.196373
0.84228516	48.609417
0.84472656	45.616856
0.84716797	43.336845
0.8496094	41.819023
0.8520508	41.04196
0.8544922	40.91828
0.8569336	41.305923
0.859375	42.024384
0.8618164	42.87692
0.8642578	43.677956
0.8666992	44.27939
0.8691406	44.58898
0.87158203	44.580402
0.87402344	44.296112
0.87646484	43.842068
0.87890625	43.369312
0.88134766	43.043655
0.88378906	43.012222
0.88623047	43.37517
0.8886719	44.16652
0.8911133	45.3451
0.8935547	46.79718
0.8959961	48.306908
0.8984375	49.674023
0.9008789	50.657734
0.9033203	51.033222
0.9057617	50.626797
0.9082031	49.347107
0.91064453	47.20555
0.91308594	44.321297
0.91552734	40.907207
0.91796875	37.236504
0.92041016	33.597126
0.92285156	30.244762
0.92529297	27.365322
0.9277344	25.054611
0.9301758	23.317476
0.9326172	22.08501
0.9350586	21.245583
0.9375	20.682196
0.9399414	20.305326
0.9423828	20.071556
0.9448242	19.985615
0.9472656	20.090029
0.94970703	20.45681
0.95214844	21.187338
0.95458984	22.386133
0.95703125	24.131935
0.95947266	26.464579
0.96191406	29.37803
0.96435547	32.817562
0.9667969	36.68103
0.9692383	40.823776
0.9716797	45.068645
0.9741211	48.993538
0.9765625	52.849457
0.9790039	56.25144
0.9814453	59.052483
0.9838867	61.156986
0.9863281	62.53387
0.98876953	63.21913
0.99121094	63.307117
0.99365234	62.93539
0.99609375	62.26622
0.99853516	61.461735
1.0009766	60.65488
1.003418	59.926373
1.0058594	59.29528
1.0083008	58.72453
1.0107422	58.135967
1.0131836	57.429913
1.015625	56.507175
1.0180664	55.292324
1.0205078	53.754333
1.0229492	51.919273
1.0253906	49.87251
1.027832	47.75254
1.0302734	45.738007
1.0327148	44.025253
1.0351562	42.797794
1.0375977	42.196697
1.0400391	42.299313
1.0424805	43.106277
1.0449219	44.536217
1.0473633	46.43068
1.0498047	48.572903
1.0522461	50.71903
1.0546875	52.636177
1.0571289	54.060135
1.0595703	55.018265
1.0620117	55.444656
1.0644531	55.417957
1.0668945	55.09632
1.0693359	54.691288
1.0717773	54.43665
1.0742188	54.556194
1.0766602	55.23043
1.0791016	56.568295
1.081543	58.591663
1.0839844	61.23519
1.0864258	64.359764
1.0888672	67.774864
1.0913086	71.26444
1.09375	74.61239
1.0961914	77.62528
1.0986328	80.15151
1.1010742	82.09476
1.1035156	83.41765
1.105957	84.13291
1.1083984	84.28887
1.1108398	83.95703
1.1132812	83.21946
1.1157227	82.15427
1.1181641	80.82416
1.1206055	79.27069
1.1230469	77.51531
1.1254883	75.56553
1.1279297	73.424835
1.1303711	71.10426
1.1328125	68.63189
1.1352539	66.057144
1.1376953	63.55068
1.1401367	60.985973
1.1425781	58.54904
1.1450195	56.31901
1.1474609	54.35798
1.1499023	52.70311
1.1523438	51.36174
1.1547852	50.309853
1.1572266	49.49341
1.159668	48.834244
1.1621094	48.239544
1.1645508	47.614285
1.1669922	46.875225
1.1694336	45.96402
1.171875	44.855965
1.1743164	43.562157
1.1767578	42.1263
1.1791992	40.61922
1.1816406	39.13342
1.184082	37.775753
1.1865234	36.655025
1.1889648	35.866985
1.1914062	35.48185
1.1938477	35.537296
1.1962891	36.03741
1.1987305	36.955696
1.2011719	38.23955
1.2036133	39.81488
1.2060547	41.591225
1.2084961	43.4678
1.2109375	45.34138
1.2133789	47.116276
1.2158203	48.712257
1.2182617	49.981445
1.2207031	51.019096
1.2231445	51.730286
1.2255859	52.095406
1.2280273	52.117157
1.2304688	51.821583
1.2329102	51.249947
1.2353516	50.45429
1.237793	49.498127
1.2402344	48.45804
1.2426758	47.42215
1.2451172	46.485493
1.2475586	45.744358
1.25	45.28979
1.2524414	45.19909
1.2548828	45.526127
1.2573242	46.293762
1.2597656	47.490574
1.262207	49.071156
1.2646484	50.958504
1.2670898	53.049294
1.2695312	55.22327
1.2719727	57.356155
1.2744141	59.333385
1.2768555	61.063015
1.2792969	62.483852
1.2817383	63.568745
1.2841797	64.32228
1.2866211	64.77358
1.2890625	64.96549
1.2915039	64.94222
1.2939453	64.738846
1.2963867	64.37776
1.2988281	63.80966
1.3012695	63.191093
1.3037109	62.433857
1.3061523	61.52908
1.3085938	60.47315
1.3110352	59.27489
1.3134766	57.959312
1.315918	56.568913
1.3183594	55.16274
1.3208008	53.8137
1.3232422	52.60327
1.3256836	51.613674
1.328125	50.92043
1.3305664	50.587833
1.3330078	50.66372
1.3354492	51.172012
1.3378906	52.108315
1.340332	53.439587
1.3427734	55.106255
1.3452148	57.02694
1.3476562	59.10711
1.3500977	61.25152
1.3525391	63.377472
1.3549805	65.426994
1.3574219	67.3746
1.3598633	69.23183
1.3623047	71.0466
1.3647461	72.896385
1.3671875	74.8769
1.3696289	77.08998
1.3720703	79.63167
1.3745117	82.57743
1.3769531	85.96492
1.3793945	89.77952
1.3818359	93.84518
1.3842773	98.24799
1.3867188	102.72598
1.3891602	107.08881
1.3916016	111.13706
1.394043	114.6795
1.3964844	117.55328
1.3989258	119.64277
1.4013672	120.8925
1.4038086	121.31219
1.40625	120.97457
1.4086914	120.00821
1.4111328	118.5862
1.4135742	116.91168
1.4160156	115.20165
1.418457	113.6713
1.4208984	112.51711
1.4233398	111.89989
1.4257812	111.93114
1.4282227	112.66477
1.4306641	114.09434
1.4331055	116.15642
1.4355469	118.73872
1.4379883	121.69192
1.4404297	124.84311
1.4428711	128.00941
1.4453125	131.01077
1.4477539	133.68156
1.4501953	135.88078
1.4526367	137.50082
1.4550781	138.47385
1.4575195	138.77487
1.4599609	138.42047
1.4624023	137.34749
1.4648438	135.89778
1.4672852	134.06387
1.4697266	131.97353
1.472168	129.75478
1.4746094	127.52212
1.4770508	125.36651
1.4794922	123.34877
1.4819336	121.49523
1.484375	119.7959
1.4868164	118.20736
1.4892578	116.66106
1.4916992	115.07393
1.4941406	113.35773
1.496582	111.42701
1.4990234	109.20825
1.5014648	106.65054
1.5039062	103.73452
1.5063477	100.47462
1.5087891	96.91511
1.5112305	93.12193
1.5136719	89.17634
1.5161133	85.16887
1.5185547	81.19252
1.5209961	77.334175
1.5234375	73.66661
1.5258789	70.24325
1.5283203	67.094666
1.5307617	64.226105
1.5332031	61.617905
1.5356445	59.230755
1.5380859	57.01452
1.5405273	54.916298
1.5429688	53.03003
1.5454102	51.010548
1.5478516	48.962063
1.550293	46.857178
1.5527344	44.68195
1.5551758	42.437756
1.5576172	40.141613
1.5600586	37.82345
1.5625	35.52089
1.5649414	33.274273
1.5673828	31.12568
1.5698242	29.119743
1.5722656	27.299683
1.574707	25.701895
1.5771484	24.353874
1.5795898	23.27487
1.5820312	22.476809
1.5844727	21.96496
1.5869141	21.738926
1.5893555	21.794476
1.5917969	22.126581
1.5942383	22.73211
1.5966797	23.610788
1.5991211	24.764318
1.6015625	26.194958
1.6040039	27.904526
1.6064453	29.893661
1.6088867	32.160347
1.6113281	34.69728
1.6137695	37.488922
1.6162109	40.50928
1.6186523	43.721115
1.6210938	47.076653
1.6235352	50.45974
1.6259766	53.917236
1.628418	57.326786
1.6308594	60.6163
1.6333008	63.71658
1.6357422	66.56576
1.6381836	69.11306
1.640625	71.322945
1.6430664	73.1801
1.6455078	74.69227
1.6479492	75.88935
1.6503906	76.820274
1.652832	77.54919
1.6552734	78.15237
1.6577148	78.71417
1.6601562	79.31852
1.6625977	80.04014
1.6650391	80.943
1.6674805	82.077095
1.6699219	83.46965
1.6723633	85.11877
1.6748047	86.9933
1.6772461	89.038414
1.6796875	91.18126
1.6821289	93.33418
1.6845703	95.39801
1.6870117	97.26806
1.6894531	98.843445
1.6918945	100.03677
1.6943359	100.78042
1.6967773	101.02919
1.6992188	100.76121
1.7016602	99.97856
1.7041016	98.706665
1.706543	96.959465
1.7089844	94.86176
1.7114258	92.460594
1.7138672	89.83928
1.7163086	87.08358
1.71875	84.27695
1.7211914	81.49681
1.7236328	78.81329
1.7260742	76.289345
1.7285156	73.98065
1.730957	71.935486
1.7333984	70.19562
1.7358398	68.79705
1.7382812	67.77196
1.7407227	67.14926
1.7431641	66.95598
1.7456055	67.21829
1.7480469	67.96232
1.7504883	69.21385
1.7529297	70.99689
1.7553711	73.331436
1.7578125	76.23113
1.7602539	79.701416
1.7626953	83.73834
1.7651367	88.32788
1.7675781	93.44576
1.7700195	99.057396
1.7724609	105.11592
1.7749023	111.55902
1.7773438	118.30666
1.7797852	125.25987
1.7822266	132.30444
1.784668	139.3127
1.7871094	146.05373
1.7895508	152.54414
1.7919922	158.55783
1.7944336	163.94435
1.796875	168.55911
1.7993164	172.26947
1.8017578	174.96065
1.8041992	176.54321
1.8066406	176.9594
1.809082	176.18549
1.8115234	174.23268
1.8139648	171.14735
1.8164062	167.00957
1.8188477	161.93105
1.8212891	156.05244
1.8237305	149.53716
1.8261719	142.56577
1.8286133	135.32893
1.8310547	128.01999
1.8334961	120.82771
1.8359375	113.92971
1.8383789	107.48644
1.8408203	101.63611
1.8432617	96.49034
1.8457031	92.130646
1.8481445	88.60619
1.8505859	85.93326
1.8530273	84.09681
1.8554688	83.05401
1.8579102	82.73877
1.8603516	83.06608
1.862793	83.93642
1.8652344	85.24005
1.8676758	86.99012
1.8701172	88.79987
1.8725586	90.70182
1.875	92.59681
1.8774414	94.39885
1.8798828	96.03713
1.8823242	97.456985
1.8847656	98.620186
1.887207	99.505135
1.8896484	100.10652
1.8920898	100.43391
1.8945312	100.50924
1.8969727	100.36487
1.8994141	100.04351
1.9018555	99.595314
1.9042969	99.07276
1.9067383	98.52655
1.9091797	98.00302
1.9116211	97.542595
1.9140625	97.17851
1.9165039	96.935905
1.9189453	96.83155
1.9213867	96.87475
1.9238281	97.06853
1.9262695	97.41037
1.9287109	97.89276
1.9311523	98.50372
1.9335938	99.22747
1.9360352	100.04472
1.9384766	100.93357
1.940918	101.87032
1.9433594	102.8303
1.9458008	103.78806
1.9482422	104.71797
1.9506836	105.58055
1.953125	106.35819
1.9555664	107.02259
1.9580078	107.54562
1.9604492	107.9002
1.9628906	108.06111
1.965332	108.00571
1.9677734	107.71443
1.9702148	107.17091
1.9726562	106.36286
1.9750977	105.28256
1.9775391	103.92933
1.9799805	102.31018
1.9824219	100.43986
1.9848633	98.3399
1.9873047	96.03814
1.9897461	93.569016
1.9921875	90.973755
1.9946289	88.299866
1.9970703	85.599556
1.9995117	82.92746
2.0019531	80.33804
2.0043945	77.88339
2.006836	75.61189
2.0092773	73.56757
2.0117188	71.789085
2.0141602	70.30805
2.0166016	69.14709
2.019043	68.32008
2.0214844	67.83291
2.0239258	67.6835
2.0263672	67.86133
2.0288086	68.347855
2.03125	69.17288
2.0336914	70.19888
2.0361328	71.436325
2.0385742	72.841995
2.0410156	74.36804
2.043457	75.96282
2.0458984	77.57253
2.0483398	79.14321
2.0507812	80.62302
2.0532227	81.96349
2.055664	83.12102
2.0581055	84.05815
2.0605469	84.74431
2.0629883	85.15617
2.0654297	85.278015
2.067871	85.10239
2.0703125	84.6314
2.072754	83.877144
2.0751953	82.86069
2.0776367	81.610275
2.0800781	80.15974
2.0825195	78.54729
2.084961	76.81448
2.0874023	75.00476
2.0898438	73.16126
2.0922852	71.32548
2.0947266	69.53644
2.097168	67.831055
2.0996094	66.24262
2.1020508	64.79838
2.1044922	63.517735
2.1069336	62.41314
2.109375	61.492706
2.1118164	60.79115
2.1142578	60.25661
2.1166992	59.908577
2.1191406	59.74098
2.121582	59.744804
2.1240234	59.909405
2.1264648	60.224236
2.1289062	60.679768
2.1313477	61.268127
2.133789	61.982174
2.1362305	62.815086
2.1386719	63.75982
2.1411133	64.80893
2.1435547	65.954575
2.145996	67.18837
2.1484375	68.5009
2.150879	69.88095
2.1533203	71.31504
2.1557617	72.787384
2.1582031	74.27998
2.1606445	75.772545
2.163086	77.242355
2.1655273	78.66465
2.1679688	80.013336
2.1704102	81.26157
2.1728516	82.3828
2.175293	83.35158
2.1777344	84.1454
2.1801758	84.74609
2.1826172	85.14013
2.1850586	85.31832
2.1875	85.27548
2.1899414	85.01055
2.1923828	84.513855
2.1948242	83.822205
2.1972656	82.93613
2.199707	81.875084
2.2021484	80.66295
2.2045898	79.32709
2.2070312	77.89704
2.2094727	76.40402
2.211914	74.88032
2.2143555	73.35872
2.2167969	71.87238
2.2192383	70.45389
2.2216797	69.13409
2.224121	67.941124
2.2265625	66.900085
2.229004	66.033134
2.2314453	65.3595
2.2338867	64.895065
2.2363281	64.651665
2.2387695	64.63637
2.241211	64.851204
2.2436523	65.29338
2.2460938	65.95594
2.2485352	66.8281
2.2509766	67.89548
2.253418	69.139656
2.2558594	70.53788
2.2583008	72.06306
2.2607422	73.684265
2.2631836	75.36779
2.265625	77.07828
2.2680664	78.77971
2.2705078	80.4361
2.2729492	82.00359
2.2753906	83.46393
2.277832	84.776695
2.2802734	85.911156
2.2827148	86.83933
2.2851562	87.5364
2.2875977	87.9821
2.290039	88.16038
2.2924805	88.06068
2.2949219	87.67804
2.2973633	87.01336
2.2998047	86.073555
2.302246	84.87151
2.3046875	83.42556
2.307129	81.758965
2.3095703	79.89961
2.3120117	77.88002
2.3144531	75.73696
2.3168945	73.51062
2.319336	71.24388
2.3217773	68.981766
2.3242188	66.77035
2.3266602	64.65554
2.3291016	62.680748
2.331543	60.885815
2.3339844	59.306435
2.3364258	57.974434
2.3388672	56.917812
2.3413086	56.159924
2.34375	55.718216
2.3461914	55.60317
2.3486328	55.81784
2.3510742	56.358135
2.3535156	57.21369
2.355957	58.39643
2.3583984	59.83356
2.3608398	61.52583
2.3632812	63.445065
2.3657227	65.55921
2.368164	67.833565
2.3706055	70.23107
2.3730469	72.71332
2.3754883	75.24223
2.3779297	77.78173
2.380371	80.29861
2.3828125	82.76273
2.385254	85.14691
2.3876953	87.42688
2.3901367	89.58167
2.3925781	91.594215
2.3950195	93.45196
2.397461	95.14728
2.3999023	96.677414
2.4023438	98.04403
2.4047852	99.25231
2.4072266	100.31041
2.409668	101.22854
2.4121094	102.01837
2.4145508	102.69233
2.4169922	103.26283
2.4194336	103.74128
2.421875	104.13764
2.4243164	104.46026
2.4267578	104.71581
2.4291992	104.90885
2.4316406	105.04157
2.434082	105.11373
2.4365234	105.10317
2.4389648	105.04662
2.4414062	104.91332
2.4438477	104.69437
2.446289	104.37897
2.4487305	103.95604
2.4511719	103.41507
2.4536133	102.74712
2.4560547	101.94539
2.458496	101.00551
2.4609375	99.92575
2.463379	98.70718
2.4658203	97.35409
2.4682617	95.874504
2.4707031	94.28051
2.4731445	92.58815
2.475586	90.816734
2.4780273	88.98799
2.4804688	87.12528
2.4829102	85.25357
2.4853516	83.39863
2.487793	81.58654
2.4902344	79.842384
2.4926758	78.18884
2.4951172	76.645386
2.4975586	75.22809
2.5	73.949974
2.5024414	72.82096
2.5048828	71.84745
2.5073242	71.031685
2.5097656	70.371445
2.512207	69.86018
2.5146484	69.48776
2.5170898	69.26358
2.5195312	69.13508
2.5219727	69.10384
2.524414	69.153465
2.5268555	69.26685
2.5292969	69.42584
2.5317383	69.61145
2.5341797	69.80501
2.536621	69.99002
2.5390625	70.15322
2.541504	70.28428
2.5439453	70.3748
2.5463867	70.41749
2.5488281	70.405914
2.5512695	70.33494
2.553711	70.20176
2.5561523	70.0065
2.5585938	69.75186
2.5610352	69.44206
2.5634766	69.08181
2.565918	68.67581
2.5683594	68.22877
2.5708008	67.745995
2.5732422	67.23391
2.5756836	66.69972
2.578125	66.15049
2.5805664	65.59246
2.5830078	65.031456
2.5854492	64.473946
2.5878906	63.92739
2.590332	63.399597
2.5927734	62.897717
2.5952148	62.42736
2.5976562	61.9993
2.6000977	61.605797
2.602539	61.255486
2.6049805	60.951496
2.6074219	60.697166
2.6098633	60.495163
2.6123047	60.346718
2.614746	60.251324
2.6171875	60.20706
2.619629	60.211147
2.6220703	60.260166
2.6245117	60.349846
2.6269531	60.47482
2.6293945	60.628815
2.631836	60.805237
2.6342773	60.99773
2.6367188	61.2003
2.6391602	61.407146
2.6416016	61.61264
2.644043	61.811504
2.6464844	61.999397
2.6489258	62.17346
2.6513672	62.332485
2.6538086	62.47672
2.65625	62.607513
2.6586914	62.72721
2.6611328	62.83935
2.6635742	62.949055
2.6660156	63.063164
2.668457	63.189854
2.6708984	63.337994
2.6733398	63.516457
2.6757812	63.733646
2.6782227	63.9974
2.680664	64.31086
2.6831055	64.68752
2.6855469	65.1299
2.6879883	65.64209
2.6904297	66.22639
2.692871	66.88281
2.6953125	67.60909
2.697754	68.401115
2.7001953	69.25326
2.7026367	70.15844
2.7050781	71.1079
2.7075195	72.091095
2.709961	73.09597
2.7124023	74.10947
2.7148438	75.118256
2.7172852	76.109085
2.7197266	77.06928
2.722168	77.9867
2.7246094	78.84979
2.7270508	79.64775
2.7294922	80.370834
2.7319336	81.01088
2.734375	81.56187
2.7368164	82.02001
2.7392578	82.38369
2.7416992	82.65309
2.7441406	82.83008
2.746582	82.91813
2.7490234	82.92234
2.7514648	82.849205
2.7539062	82.706245
2.7563477	82.50144
2.758789	82.24359
2.7612305	81.92739
2.7636719	81.58831
2.7661133	81.222595
2.7685547	80.83857
2.770996	80.44384
2.7734375	80.045074
2.775879	79.64786
2.7783203	79.2566
2.7807617	78.87457
2.7832031	78.5041
2.7856445	78.14661
2.788086	77.80248
2.7905273	77.47088
2.7929688	77.14962
2.7954102	76.835526
2.7978516	76.524635
2.800293	76.21256
2.8027344	75.89456
2.8051758	75.565575
2.8076172	75.220406
2.8100586	74.853874
2.8125	74.461044
2.8149414	74.03725
2.8173828	73.578125
2.8198242	73.07975
2.8222656	72.538956
2.824707	71.953606
2.8271484	71.32267
2.8295898	70.64609
2.8320312	69.92451
2.8344727	69.1587
2.836914	68.35098
2.8393555	67.50291
2.8417969	66.62216
2.8442383	65.700806
2.8466797	64.74816
2.849121	63.768208
2.8515625	62.76528
2.854004	61.743896
2.8564453	60.70851
2.8588867	59.663376
2.8613281	58.61257
2.8637695	57.56014
2.866211	56.510143
2.8686523	55.466637
2.8710938	54.43348
2.8735352	53.4144
2.8759766	52.41271
2.878418	51.431564
2.8808594	50.47403
2.8833008	49.54313
2.8857422	48.64181
2.8881836	47.77279
2.890625	46.93844
2.8930664	46.14088
2.8955078	45.38227
2.8979492	44.66512
2.9003906	43.99231
2.902832	43.366768
2.9052734	42.791065
2.9077148	42.26725
2.9101562	41.797104
2.9125977	41.382618
2.915039	41.02647
2.9174805	40.730682
2.9199219	40.49764
2.9223633	40.339207
2.9248047	40.234417
2.927246	40.195194
2.9296875	40.22151
2.932129	40.313095
2.9345703	40.4695
2.9370117	40.690014
2.9394531	40.97341
2.9418945	41.317722
2.944336	41.720135
2.9467773	42.177128
2.9492188	42.68481
2.9516602	43.23899
2.9541016	43.83511
2.956543	44.467728
2.9589844	45.130177
2.9614258	45.814716
2.9638672	46.513626
2.9663086	47.220024
2.96875	47.92736
2.9711914	48.628593
2.9736328	49.315956
2.9760742	49.981518
2.9785156	50.618046
2.980957	51.219257
2.9833984	51.779495
2.9858398	52.29327
2.9882812	52.755016
2.9907227	53.159206
2.993164	53.50077
2.9956055	53.77586
2.9980469	53.982033
3.0004883	54.11789
3.0029297	54.182648
3.005371	54.165775
3.0078125	54.08818
3.010254	53.942062
3.0126953	53.73024
3.0151367	53.456776
3.0175781	53.12661
3.0200195	52.7452
3.022461	52.318375
3.0249023	51.852222
3.0273438	51.353096
3.0297852	50.82764
3.0322266	50.282578
3.034668	49.72463
3.0371094	49.16027
3.0395508	48.59555
3.0419922	48.036057
3.0444336	47.486958
3.046875	46.95304
3.0493164	46.438534
3.0517578	45.946884
3.0541992	45.48065
3.0566406	45.04153
3.059082	44.630512
3.0615234	44.24794
3.0639648	43.89351
3.0664062	43.566353
3.0688477	43.26517
3.071289	42.98841
3.0737305	42.73417
3.0761719	42.50017
3.0786133	42.28377
3.0810547	42.082096
3.083496	41.892296
3.0859375	41.717945
3.088379	41.545364
3.0908203	41.378082
3.0932617	41.21463
3.0957031	41.054
3.0981445	40.895527
3.100586	40.73877
3.1030273	40.58346
3.1054688	40.429585
3.1079102	40.27751
3.1103516	40.128017
3.112793	39.98218
3.1152344	39.841187
3.1176758	39.70618
3.1201172	39.5782
3.1225586	39.45818
3.125	39.34701
3.1274414	39.24561
3.1298828	39.154842
3.1323242	39.075386
3.1347656	39.007492
3.137207	38.9509
3.1396484	38.904896
3.1420898	38.86851
3.1445312	38.840694
3.1469727	38.82033
3.149414	38.806023
3.1518555	38.79649
3.1542969	38.789864
3.1567383	38.784237
3.1591797	38.77763
3.161621	38.768066
3.1640625	38.753647
3.166504	38.73535
3.1689453	38.707783
3.1713867	38.670685
3.1738281	38.62294
3.1762695	38.563763
3.178711	38.492672
3.1811523	38.409393
3.1835938	38.31373
3.1860352	38.20543
3.1884766	38.08411
3.190918	37.94935
3.1933594	37.80098
3.1958008	37.63938
3.1982422	37.46548
3.2006836	37.28048
3.203125	37.08559
3.2055664	36.881977
3.2080078	36.670815
3.2104492	36.453384
3.2128906	36.23103
3.215332	36.005154
3.2177734	35.777225
3.2202148	35.54877
3.2226562	35.321278
3.2250977	35.09614
3.227539	34.87469
3.2299805	34.65817
3.2324219	34.44772
3.2348633	34.244247
3.2373047	34.048447
3.239746	33.86103
3.2421875	33.68299
3.244629	33.515553
3.2470703	33.363396
3.2495117	33.220493
3.2519531	33.090576
3.2543945	32.97397
3.256836	32.870625
3.2592773	32.78028
3.2617188	32.702587
3.2641602	32.63721
3.2666016	32.583748
3.269043	32.541622
3.2714844	32.509983
3.2739258	32.4877
3.2763672	32.47353
3.2788086	32.466225
3.28125	32.46458
3.2836914	32.467335
3.2861328	32.473045
3.2885742	32.48
3.2910156	32.486217
3.293457	32.48958
3.2958984	32.48803
3.2983398	32.479774
3.3007812	32.46336
3.3032227	32.437634
3.305664	32.401733
3.3081055	32.355137
3.3105469	32.29712
3.3129883	32.227386
3.3154297	32.145634
3.317871	32.051765
3.3203125	31.945997
3.322754	31.828884
3.3251953	31.701271
3.3276367	31.564236
3.3300781	31.41999
3.3325195	31.268291
3.334961	31.111982
3.3374023	30.953154
3.3398438	30.794062
3.3422852	30.637056
3.3447266	30.484446
3.347168	30.338446
3.3496094	30.201185
3.3520508	30.074776
3.3544922	29.961355
3.3569336	29.863018
3.359375	29.781593
3.3618164	29.718422
3.3642578	29.674303
3.3666992	29.649734
3.3691406	29.645178
3.371582	29.661034
3.3740234	29.697378
3.3764648	29.75379
3.3789062	29.829325
3.3813477	29.922716
3.383789	30.032534
3.3862305	30.157328
3.3886719	30.29515
3.3911133	30.44393
3.3935547	30.601
3.395996	30.763323
3.3984375	30.92793
3.400879	31.092354
3.4033203	31.254614
3.4057617	31.413029
3.4082031	31.566006
3.4106445	31.713722
3.413086	31.850248
3.4155273	31.976337
3.4179688	32.090622
3.4204102	32.191944
3.4228516	32.27953
3.425293	32.353073
3.4277344	32.412678
3.4301758	32.458775
3.4326172	32.49205
3.4350586	32.513405
3.4375	32.524014
3.4399414	32.525307
3.4423828	32.518955
3.4448242	32.50675
3.4472656	32.490448
3.449707	32.471706
3.4521484	32.45203
3.4545898	32.432884
3.4570312	32.415783
3.4594727	32.40231
3.461914	32.39399
3.4643555	32.392254
3.4667969	32.398117
3.4692383	32.412647
3.4716797	32.43663
3.474121	32.47065
3.4765625	32.515068
3.479004	32.56997
3.4814453	32.635063
3.4838867	32.70954
3.4863281	32.792114
3.4887695	32.881535
3.491211	32.97481
3.4936523	33.076805
3.4960938	33.183353
3.4985352	33.293667
3.5009766	33.4069
3.503418	33.522137
3.5058594	33.63837
3.5083008	33.754475
3.5107422	33.86919
3.5131836	33.98116
3.515625	34.089077
3.5180664	34.19189
3.5205078	34.28887
3.5229492	34.379528
3.5253906	34.463436
3.527832	34.540096
3.5302734	34.608894
3.5327148	34.66912
3.5351562	34.720127
3.5375977	34.761406
3.540039	34.79264
3.5424805	34.813618
3.5449219	34.82381
3.5473633	34.82352
3.5498047	34.81193
3.552246	34.788395
3.5546875	34.752285
3.557129	34.70314
3.5595703	34.640648
3.5620117	34.564438
3.5644531	34.47388
3.5668945	34.368015
3.569336	34.24585
3.5717773	34.10453
3.5742188	33.948326
3.5766602	33.774258
3.5791016	33.58195
3.581543	33.37088
3.5839844	33.140354
3.5864258	32.889736
3.5888672	32.61869
3.5913086	32.327244
3.59375	32.015617
3.5961914	31.684097
3.5986328	31.332958
3.6010742	30.962486
3.6035156	30.573088
3.605957	30.165388
3.6083984	29.740246
3.6108398	29.298702
3.6132812	28.84191
3.6157227	28.371107
3.618164	27.887716
3.6206055	27.393269
3.6230469	26.889284
3.6254883	26.378008
3.6279297	25.861137
3.630371	25.340595
3.6328125	24.818258
3.635254	24.295954
3.6376953	23.775515
3.6401367	23.258842
3.6425781	22.7479
3.6450195	22.244589
3.647461	21.750614
3.6499023	21.26742
3.6523438	20.796206
3.6547852	20.341396
3.6572266	19.89801
3.659668	19.469965
3.6621094	19.058178
3.6645508	18.66341
3.6669922	18.286186
3.6694336	17.926725
3.671875	17.58493
3.6743164	17.260519
3.6767578	16.953203
3.6791992	16.662756
3.6816406	16.388937
3.684082	16.131323
3.6865234	15.889186
3.6889648	15.661494
3.6914062	15.447063
3.6938477	15.244749
3.696289	15.053552
3.6987305	14.872492
3.7011719	14.700425
3.7036133	14.536392
3.7060547	14.379101
3.708496	14.227422
3.7109375	14.080373
3.713379	13.937112
3.7158203	13.79687
3.7182617	13.658879
3.7207031	13.522376
3.7231445	13.386646
3.725586	13.251115
3.7280273	13.115383
3.7304688	12.979196
3.7329102	12.842391
3.7353516	12.708026
3.737793	12.569136
3.7402344	12.429236
3.7426758	12.288284
3.7451172	12.146335
3.7475586	12.003574
3.75	11.860308
3.7524414	11.716899
3.7548828	11.573707
3.7573242	11.431067
3.7597656	11.289313
3.762207	11.148814
3.7646484	11.009983
3.7670898	10.873238
3.7695312	10.73895
3.7719727	10.607416
3.774414	10.478909
3.7768555	10.353683
3.7792969	10.232015
3.7817383	10.114185
3.7841797	10.000449
3.786621	9.891086
3.7890625	9.786402
3.791504	9.686684
3.7939453	9.59214
3.7963867	9.502844
3.7988281	9.418757
3.8012695	9.339848
3.803711	9.26617
3.8061523	9.197842
3.8085938	9.13497
3.8110352	9.0776005
3.8134766	9.02572
3.815918	8.98078
3.8183594	8.9397955
3.8208008	8.904225
3.8232422	8.874046
3.8256836	8.849207
3.828125	8.829595
3.8305664	8.815047
3.8330078	8.80538
3.8354492	8.800434
3.8378906	8.80011
3.840332	8.804358
3.8427734	8.813139
3.8452148	8.826344
3.8476562	8.843729
3.8500977	8.864882
3.852539	8.889321
3.8549805	8.916662
3.8574219	8.946662
3.8598633	8.9790535
3.8623047	9.013737
3.864746	9.050281
3.8671875	9.08819
3.869629	9.126852
3.8720703	9.165608
3.8745117	9.203847
3.8769531	9.241041
3.8793945	9.276711
3.881836	9.310354
3.8842773	9.341383
3.8867188	9.369124
3.8891602	9.392914
3.8916016	9.412216
3.894043	9.426619
3.8964844	9.435531
3.8989258	9.4388485
3.9013672	9.436036
3.9038086	9.426659
3.90625	9.410203
3.9086914	9.386183
3.9111328	9.354294
3.9135742	9.314407
3.9160156	9.26649
3.918457	9.210551
3.9208984	9.14662
3.9233398	9.074751
3.9257812	8.995052
3.9282227	8.907694
3.930664	8.812917
3.9331055	8.711005
3.9355469	8.602263
3.9379883	8.486909
3.9404297	8.365448
3.942871	8.238203
3.9453125	8.105696
3.947754	7.968532
3.9501953	7.8273435
3.9526367	7.6827455
3.9550781	7.535329
3.9575195	7.3856525
3.959961	7.234231
3.9624023	7.0815377
3.9648438	6.9280586
3.9672852	6.774364
3.9697266	6.6210485
3.972168	6.468701
3.9746094	6.3178663
3.9770508	6.1690235
3.9794922	6.0233483
3.9819336	5.8797035
3.984375	5.7390943
3.9868164	5.601768
3.9892578	5.467922
3.9916992	5.3377113
3.9941406	5.2112503
3.996582	5.088619
3.9990234	4.9698596
4.001465	4.8549695
4.0039062	4.7439094
4.0063477	4.6366
4.008789	4.5329466
4.0112305	4.43281
4.013672	4.3360176
4.0161133	4.2422976
4.0185547	4.1515102
4.020996	4.063344
4.0234375	3.977572
4.025879	3.8940094
4.0283203	3.8125014
4.0307617	3.7328947
4.033203	3.6550126
4.0356445	3.5786412
4.038086	3.5035346
4.0405273	3.4294376
4.0429688	3.3561149
4.04541	3.2833834
4.0478516	3.2110982
4.050293	3.1391563
4.0527344	3.067489
4.055176	2.9960625
4.057617	2.9248772
4.0600586	2.85563
4.0625	2.7849543
4.0649414	2.7145782
4.067383	2.6445568
4.069824	2.5749433
4.0722656	2.5057812
4.074707	2.4370978
4.0771484	2.3689094
4.07959	2.3012428
4.0820312	2.2341723
4.0844727	2.167823
4.086914	2.1023562
4.0893555	2.037919
4.091797	1.9746273
4.0942383	1.9125217
4.0966797	1.8516955
4.099121	1.7921638
4.1015625	1.7340043
4.104004	1.6773149
4.1064453	1.6221873
4.1088867	1.5686829
4.111328	1.5168233
4.1137695	1.4665941
4.116211	1.4179716
4.1186523	1.3709509
4.1210938	1.3255463
4.123535	1.2817827
4.1259766	1.2396666
4.128418	1.1991796
4.1308594	1.1602709
4.133301	1.122855
4.135742	1.0868223
4.1381836	1.0520678
4.140625	1.0190384
4.1430664	0.9867496
4.145508	0.9555727
4.147949	0.92547196
4.1503906	0.8964215
4.152832	0.8683977
4.1552734	0.84137017
4.157715	0.8152916
4.1601562	0.79009163
4.1625977	0.76568127
4.165039	0.7419782
4.1674805	0.71892446
4.169922	0.69649214
4.1723633	0.6746669
4.1748047	0.6534216
4.177246	0.63275087
4.1796875	0.61261624
4.182129	0.5929959
4.1845703	0.5738802
4.1870117	0.55526865
4.189453	0.53716207
4.1918945	0.5195562
4.194336	0.5024393
4.1967773	0.48579323
4.1992188	0.46959737
4.20166	0.4538361
4.2041016	0.4384978
4.206543	0.42357782
4.2089844	0.409078
4.211426	0.39500695
4.213867	0.38137892
4.2163086	0.3682106
4.21875	0.35551664
4.2211914	0.3434586
4.223633	0.33166993
4.226074	0.3203397
4.2285156	0.30944094
4.230957	0.2989292
4.2333984	0.28877825
4.23584	0.27898887
4.2382812	0.26957023
4.2407227	0.26052916
4.243164	0.25186694
4.2456055	0.24357481
4.248047	0.23563322
4.2504883	0.22801156
4.2529297	0.22067441
4.255371	0.2136086
4.2578125	0.2068054
4.260254	0.20026693
4.2626953	0.19399598
4.2651367	0.18799111
4.267578	0.18224372
4.2700195	0.17673773
4.272461	0.17145209
4.2749023	0.16636522
4.2773438	0.16145827
4.279785	0.15671587
4.2822266	0.15212394
4.284668	0.14767268
4.2871094	0.14335842
4.289551	0.1391818
4.291992	0.13514313
4.2944336	0.13123757
4.296875	0.12745266
4.2993164	0.12377313
4.301758	0.12019017
4.304199	0.11680417
4.3066406	0.11342217
4.309082	0.11013604
4.3115234	0.10694722
4.313965	0.10385444
4.3164062	0.10085354
4.3188477	0.09793864
4.321289	0.09510447
4.3237305	0.09234641
4.326172	0.08966015
4.3286133	0.087040655
4.3310547	0.08448134
4.333496	0.081981294
4.3359375	0.07953793
4.338379	0.07715026
4.3408203	0.0748161
4.3432617	0.07253293
4.345703	0.07029988
4.3481445	0.068117976
4.350586	0.06598839
4.3530273	0.06391058
4.3554688	0.06188138
4.35791	0.059896998
4.3603516	0.057955444
4.362793	0.056057062
4.3652344	0.05420258
4.367676	0.05239154
4.370117	0.050622407
4.3725586	0.04889386
4.375	0.047205817
4.3774414	0.045559093
4.379883	0.04395457
4.382324	0.042392697
4.3847656	0.04091022
4.387207	0.039432663
4.3896484	0.037997425
4.39209	0.036604807
4.3945312	0.03525516
4.3969727	0.033948407
4.399414	0.032683883
4.4018555	0.031459976
4.404297	0.03027494
4.4067383	0.02912781
4.4091797	0.028018221
4.411621	0.026947614
4.4140625	0.025915736
4.416504	0.024922078
4.4189453	0.023965398
4.4213867	0.023044227
4.423828	0.022157462
4.4262695	0.021304397
4.428711	0.020484501
4.4311523	0.01969739
4.4335938	0.018942803
4.436035	0.018220617
4.4384766	0.01753023
4.440918	0.01686998
4.4433594	0.016236432
4.445801	0.015625928
4.448242	0.015036999
4.4506836	0.014469696
4.453125	0.013924331
4.4555664	0.013400842
4.458008	0.01289858
4.460449	0.01241646
4.4628906	0.01195324
4.465332	0.011521437
4.4677734	0.011091492
4.470215	0.010676942
4.4726562	0.01027661
4.4750977	0.0098892655
4.477539	0.009513973
4.4799805	0.00915021
4.482422	0.008797837
4.4848633	0.008456814
4.4873047	0.00812694
4.489746	0.0078075873
4.4921875	0.007498255
4.494629	0.0071979347
4.4970703	0.006905952
4.4995117	0.006621974
4.501953	0.006345869
4.5043945	0.006077577
4.506836	0.005817081
4.5092773	0.005564422
4.5117188	0.0053196056
4.51416	0.005082528
4.5166016	0.0048528924
4.519043	0.004630442
4.5214844	0.0044151354
4.523926	0.0042071166
4.526367	0.0040065646
4.5288086	0.0038135443
4.53125	0.003627956
4.5336914	0.003449555
4.536133	0.0032780345
4.538574	0.003113103
4.5410156	0.0029545224
4.543457	0.0028021384
4.5458984	0.0026587618
4.54834	0.0025187037
4.5507812	0.0023846866
4.5532227	0.002256687
4.555664	0.0021346507
4.5581055	0.0020184298
4.560547	0.0019077967
4.5629883	0.00180249
4.5654297	0.0017022684
4.567871	0.0016069438
4.5703125	0.001516469
4.572754	0.0014307321
4.5751953	0.0013496222
4.5776367	0.0012729937
4.580078	0.0012006736
4.5825195	0.0011324828
4.584961	0.0010682651
4.5874023	0.0010078736
4.5898438	9.511608E-4
4.592285	8.9796545E-4
4.5947266	8.481122E-4
4.597168	8.014379E-4
4.5996094	7.577897E-4
4.602051	7.170352E-4
4.604492	6.790331E-4
4.6069336	6.4365E-4
4.609375	6.107509E-4
4.6118164	5.802098E-4
4.614258	5.518982E-4
4.616699	5.256806E-4
4.6191406	5.014143E-4
4.621582	4.7895516E-4
4.6240234	4.5816958E-4
4.626465	4.389415E-4
4.6289062	4.217893E-4
4.6313477	4.0529476E-4
4.633789	3.9004022E-4
4.6362305	3.7590804E-4
4.638672	3.627852E-4
4.6411133	3.5058244E-4
4.6435547	3.3922866E-4
4.645996	3.286652E-4
4.6484375	3.188469E-4
4.650879	3.097156E-4
4.6533203	3.012109E-4
4.6557617	2.9327616E-4
4.658203	2.8585378E-4
4.6606445	2.7888804E-4
4.663086	2.7232547E-4
4.6655273	2.6611437E-4
4.6679688	2.602077E-4
4.67041	2.545613E-4
4.6728516	2.491344E-4
4.675293	2.4389007E-4
4.6777344	2.3879125E-4
4.680176	2.338084E-4
4.682617	2.2891736E-4
4.6850586	2.241061E-4
4.6875	2.1937201E-4
4.6899414	2.1472179E-4
4.692383	2.1016606E-4
4.694824	2.0571212E-4
4.6972656	2.0136117E-4
4.699707	1.9709817E-4
4.7021484	1.9289897E-4
4.70459	1.8873336E-4
4.7070312	1.8459799E-4
4.7094727	1.8057381E-4
4.711914	1.7653673E-4
4.7143555	1.725625E-4
4.716797	1.68657E-4
4.7192383	1.6482054E-4
4.7216797	1.6105104E-4
4.724121	1.5734778E-4
4.7265625	1.5372288E-4
4.729004	1.5017876E-4
4.7314453	1.4672073E-4
4.7338867	1.4335082E-4
4.736328	1.4007479E-4
4.7387695	1.3689401E-4
4.741211	1.3381096E-4
4.7436523	1.3082314E-4
4.7460938	1.2792303E-4
4.748535	1.2510842E-4
4.7509766	1.2238364E-4
4.753418	1.197497E-4
4.7558594	1.1720531E-4
4.758301	1.147486E-4
4.760742	1.1237612E-4
4.7631836	1.100875E-4
4.765625	1.0788183E-4
4.7680664	1.0575652E-4
4.770508	1.037101E-4
4.772949	1.0174044E-4
4.7753906	9.9847246E-5
4.777832	9.802614E-5
4.7802734	9.627371E-5
4.782715	9.45871E-5
4.7851562	9.295811E-5
4.7875977	9.138087E-5
4.790039	8.9882094E-5
4.7924805	8.8392546E-5
4.794922	8.694061E-5
4.7973633	8.5524276E-5
4.7998047	8.413859E-5
4.802246	8.278214E-5
4.8046875	8.144937E-5
4.807129	8.014019E-5
4.8095703	7.884785E-5
4.8120117	7.757244E-5
4.814453	7.63097E-5
4.8168945	7.505908E-5
4.819336	7.38187E-5
4.8217773	7.258776E-5
4.8242188	7.136612E-5
4.82666	7.015217E-5
4.8291016	6.894208E-5
4.831543	6.7732195E-5
4.8339844	6.651732E-5
4.836426	6.530164E-5
4.838867	6.4085965E-5
4.8413086	6.287387E-5
4.84375	6.166765E-5
4.8461914	6.0468614E-5
4.848633	5.927894E-5
4.851074	5.8095902E-5
4.8535156	5.69201E-5
4.855957	5.574866E-5
4.8583984	5.4575583E-5
4.86084	5.3399413E-5
4.8632812	5.2224274E-5
4.8657227	5.1052746E-5
4.868164	4.9887978E-5
4.8706055	4.874248E-5
4.873047	4.759611E-5
4.8754883	4.6460696E-5
4.8779297	4.5337092E-5
4.880371	4.4226206E-5
4.8828125	4.312798E-5
4.885254	4.204605E-5
4.8876953	4.0980496E-5
4.8901367	3.993259E-5
4.892578	3.8905517E-5
4.8950195	3.7897255E-5
4.897461	3.6908838E-5
4.8999023	3.5940007E-5
4.9023438	3.4990197E-5
4.904785	3.406045E-5
4.9072266	3.315052E-5
4.909668	3.2259923E-5
4.9121094	3.139188E-5
4.914551	3.054302E-5
4.916992	2.9716006E-5
4.9194336	2.8911381E-5
4.921875	2.812887E-5
4.9243164	2.7368615E-5
4.926758	2.6628542E-5
4.929199	2.5907895E-5
4.9316406	2.5206537E-5
4.934082	2.4524325E-5
4.9365234	2.3861932E-5
4.938965	2.3220247E-5
4.9414062	2.2599143E-5
4.9438477	2.199859E-5
4.946289	2.1420321E-5
4.9487305	2.0861424E-5
4.951172	2.0323168E-5
4.9536133	1.981859E-5
4.9560547	1.9317227E-5
4.958496	1.8834637E-5
4.9609375	1.8368535E-5
4.963379	1.7919496E-5
4.9658203	1.7485478E-5
4.9682617	1.7067872E-5
4.970703	1.6664973E-5
4.9731445	1.6276228E-5
4.975586	1.5903017E-5
4.9780273	1.5540983E-5
4.9804688	1.5193557E-5
4.98291	1.4859497E-5
4.9853516	1.4537422E-5
4.987793	1.422875E-5
4.9902344	1.3930711E-5
4.992676	1.3648024E-5
4.995117	1.3373271E-5
4.9975586	1.3111488E-5


