
X-Axis: Frequency (hz)
Y-Axis: Fourier Amplitude (cm/s)
Number of Data Sets: 4


DATASET #1

Name: FAS H1 (cm/s)
Num Points: 2044
Info: 

X, Y Data:
0.009765625	1.467799
0.012207031	2.1493073
0.014648438	2.8505332
0.017089844	3.5220258
0.01953125	4.164428
0.021972656	4.7921853
0.024414062	5.336532
0.026855469	5.6078253
0.029296875	5.461838
0.03173828	5.23482
0.034179688	6.0748706
0.036621094	8.529508
0.0390625	11.594823
0.041503906	14.008992
0.043945312	14.827908
0.04638672	13.612717
0.048828125	10.641626
0.05126953	7.3904343
0.053710938	7.3153543
0.056152344	10.723516
0.05859375	14.267315
0.061035156	16.395298
0.06347656	16.623785
0.06591797	15.072583
0.068359375	12.596663
0.07080078	11.074754
0.07324219	12.054735
0.075683594	14.043953
0.078125	14.482922
0.080566406	11.853271
0.08300781	6.047826
0.08544922	5.1856203
0.087890625	14.975293
0.09033203	24.560137
0.09277344	31.100058
0.095214844	32.693615
0.09765625	28.518879
0.10009766	19.283813
0.10253906	8.811654
0.10498047	12.702489
0.10742188	23.405212
0.10986328	30.105494
0.11230469	30.525675
0.11474609	24.779222
0.1171875	15.522339
0.11962891	10.939673
0.12207031	16.782055
0.12451172	21.701908
0.12695312	20.76425
0.12939453	13.948044
0.13183594	8.389704
0.13427734	18.126272
0.13671875	29.917162
0.13916016	37.285297
0.14160156	38.67911
0.14404297	35.55189
0.14648438	31.932995
0.14892578	31.430784
0.15136719	32.83521
0.1538086	32.52409
0.15625	29.331165
0.1586914	25.458284
0.16113281	24.207823
0.16357422	25.199026
0.16601562	24.8387
0.16845703	20.982487
0.17089844	14.029169
0.17333984	6.3350563
0.17578125	4.622699
0.17822266	8.237029
0.18066406	9.746754
0.18310547	10.377337
0.18554688	13.550426
0.18798828	19.047047
0.19042969	23.757814
0.1928711	25.188612
0.1953125	22.520998
0.1977539	18.355145
0.20019531	20.646667
0.20263672	30.38488
0.20507812	39.22189
0.20751953	40.98131
0.20996094	32.612743
0.21240234	14.569724
0.21484375	9.834248
0.21728516	32.78867
0.21972656	47.894245
0.22216797	49.655407
0.22460938	36.85202
0.22705078	15.627359
0.22949219	23.510725
0.2319336	46.24323
0.234375	57.46998
0.2368164	52.16152
0.23925781	31.879534
0.24169922	6.8019524
0.24414062	27.74568
0.24658203	47.651905
0.24902344	54.226067
0.25146484	47.07864
0.25390625	30.387714
0.25634766	14.140942
0.25878906	21.305874
0.26123047	35.910637
0.26367188	45.530727
0.26611328	48.905296
0.2685547	46.334644
0.2709961	38.394573
0.2734375	25.961588
0.2758789	11.688142
0.2783203	14.136868
0.28076172	31.445824
0.28320312	48.30214
0.28564453	61.432964
0.28808594	68.136505
0.29052734	65.61665
0.29296875	51.744305
0.29541016	26.448067
0.29785156	8.567342
0.30029297	44.133812
0.30273438	74.285934
0.30517578	90.50942
0.3076172	87.80855
0.3100586	66.20424
0.3125	32.215595
0.3149414	23.281984
0.3173828	58.16957
0.31982422	87.78551
0.32226562	106.63535
0.32470703	115.9753
0.32714844	117.17976
0.32958984	108.91285
0.33203125	91.63209
0.33447266	81.69114
0.33691406	107.85975
0.33935547	157.03522
0.34179688	199.81186
0.34423828	219.5957
0.3466797	214.02702
0.3491211	196.49889
0.3515625	191.63414
0.3540039	212.11276
0.3564453	243.39565
0.35888672	265.8635
0.36132812	270.3081
0.36376953	256.86722
0.36621094	229.81847
0.36865234	193.07191
0.37109375	149.35916
0.37353516	102.87303
0.37597656	61.140217
0.37841797	34.185104
0.38085938	32.41179
0.38330078	52.01553
0.3857422	83.77909
0.3881836	119.9037
0.390625	150.39937
0.3930664	165.41359
0.3955078	158.33221
0.39794922	128.5321
0.40039062	82.709724
0.40283203	39.60484
0.40527344	53.340096
0.40771484	95.00781
0.41015625	128.47478
0.41259766	146.6655
0.41503906	147.45879
0.41748047	133.33774
0.41992188	113.61996
0.42236328	105.79
0.4248047	121.79997
0.4272461	148.71658
0.4296875	167.06593
0.4321289	169.24283
0.4345703	165.45154
0.43701172	176.14665
0.43945312	202.57465
0.44189453	222.60999
0.44433594	217.62236
0.44677734	184.99142
0.44921875	139.7226
0.45166016	112.9725
0.45410156	123.77714
0.45654297	150.8735
0.45898438	179.61049
0.46142578	205.67303
0.4638672	216.18279
0.4663086	197.22021
0.46875	159.60324
0.4711914	165.15132
0.4736328	239.7871
0.47607422	319.5879
0.47851562	360.14087
0.48095703	349.70755
0.48339844	305.4834
0.48583984	267.89648
0.48828125	267.7929
0.49072266	286.97662
0.49316406	295.01688
0.49560547	288.37137
0.49804688	280.29977
0.5004883	275.03687
0.5029297	261.6357
0.5053711	233.2846
0.5078125	202.14848
0.5102539	191.41661
0.5126953	202.91882
0.5151367	214.47699
0.5175781	213.7661
0.52001953	205.14076
0.52246094	193.138
0.52490234	171.35754
0.52734375	133.64793
0.52978516	94.11447
0.53222656	94.8302
0.53466797	129.0281
0.5371094	150.73264
0.5395508	142.08388
0.5419922	104.29273
0.5444336	48.988667
0.546875	10.542927
0.5493164	56.157955
0.5517578	83.75437
0.5541992	90.1364
0.5566406	78.739685
0.55908203	57.573795
0.56152344	36.2555
0.56396484	25.63011
0.56640625	38.708054
0.56884766	64.02938
0.57128906	86.515114
0.57373047	97.47214
0.5761719	95.940025
0.5786133	89.95636
0.5810547	91.7563
0.5834961	104.18762
0.5859375	119.06146
0.5883789	131.6552
0.5908203	144.58081
0.5932617	159.39255
0.5957031	172.98552
0.59814453	185.79797
0.60058594	203.63478
0.60302734	225.28775
0.60546875	238.0457
0.60791016	229.99434
0.61035156	202.48523
0.61279297	174.91531
0.6152344	170.64214
0.6176758	182.66624
0.6201172	188.57356
0.6225586	190.57698
0.625	209.79507
0.6274414	245.3489
0.6298828	271.7314
0.6323242	271.44083
0.6347656	248.57484
0.63720703	228.71507
0.63964844	240.19263
0.64208984	275.10425
0.64453125	301.44272
0.64697266	303.12982
0.64941406	291.79388
0.65185547	294.9751
0.6542969	322.2201
0.6567383	351.75375
0.6591797	358.39517
0.6616211	334.2102
0.6640625	292.12888
0.6665039	258.12784
0.6689453	248.08127
0.6713867	252.90018
0.6738281	260.1034
0.67626953	269.35144
0.67871094	283.3702
0.68115234	298.43082
0.68359375	306.69083
0.68603516	305.36798
0.68847656	302.81378
0.69091797	310.78345
0.6933594	327.66336
0.6958008	340.23737
0.6982422	341.83685
0.7006836	340.0064
0.703125	346.52582
0.7055664	360.2466
0.7080078	365.61002
0.7104492	348.55917
0.7128906	308.08014
0.71533203	256.26797
0.71777344	213.50076
0.72021484	199.21838
0.72265625	211.39131
0.72509766	226.2869
0.72753906	224.51813
0.72998047	202.02917
0.7324219	169.25594
0.7348633	147.26839
0.7373047	153.19891
0.7397461	179.77942
0.7421875	207.16168
0.7446289	219.04887
0.7470703	206.56313
0.7495117	173.74731
0.7519531	142.02727
0.75439453	137.73938
0.75683594	155.04173
0.75927734	170.1562
0.76171875	175.55907
0.76416016	176.5135
0.76660156	179.47218
0.76904297	185.91277
0.7714844	193.2332
0.7739258	198.8414
0.7763672	204.9548
0.7788086	220.23892
0.78125	250.04381
0.7836914	285.84332
0.7861328	313.29358
0.7885742	324.09073
0.7910156	316.33856
0.79345703	291.5682
0.79589844	260.82117
0.79833984	250.59808
0.80078125	275.96173
0.80322266	312.00208
0.80566406	325.0829
0.80810547	301.1092
0.8105469	252.96347
0.8129883	219.11652
0.8154297	224.08603
0.8178711	238.01875
0.8203125	233.12123
0.8227539	215.9816
0.8251953	201.37646
0.8276367	188.22826
0.8300781	179.36848
0.83251953	194.72337
0.83496094	230.84276
0.83740234	256.6368
0.83984375	251.26947
0.84228516	216.00035
0.84472656	172.7519
0.84716797	158.30649
0.8496094	188.23143
0.8520508	236.09595
0.8544922	273.3431
0.8569336	279.52777
0.859375	244.79343
0.8618164	179.70012
0.8642578	129.77347
0.8666992	153.56738
0.8691406	206.39622
0.87158203	233.94539
0.87402344	219.82071
0.87646484	168.84358
0.87890625	105.08467
0.88134766	76.52653
0.88378906	96.570595
0.88623047	114.25182
0.8886719	119.34134
0.8911133	124.31799
0.8935547	141.14566
0.8959961	171.48476
0.8984375	205.94086
0.9008789	232.85712
0.9033203	253.29094
0.9057617	286.5329
0.9082031	345.47366
0.91064453	413.45428
0.91308594	464.79202
0.91552734	489.89978
0.91796875	498.10266
0.92041016	502.77875
0.92285156	506.25534
0.92529297	501.5149
0.9277344	482.17667
0.9301758	445.62106
0.9326172	392.16577
0.9350586	325.98917
0.9375	254.33444
0.9399414	182.08618
0.9423828	108.39727
0.9448242	45.70644
0.9472656	94.75298
0.94970703	181.54654
0.95214844	248.01407
0.95458984	273.57846
0.95703125	257.19763
0.95947266	224.43054
0.96191406	216.87846
0.96435547	245.13416
0.9667969	280.74255
0.9692383	303.68393
0.9716797	311.5516
0.9741211	306.77057
0.9765625	287.5693
0.9790039	252.60844
0.9814453	212.21368
0.9838867	184.6625
0.9863281	170.8345
0.98876953	153.33083
0.99121094	130.3609
0.99365234	124.51409
0.99609375	143.57285
0.99853516	165.25395
1.0009766	179.43529
1.003418	195.8732
1.0058594	220.05621
1.0083008	235.81042
1.0107422	221.83127
1.0131836	176.01286
1.015625	134.61288
1.0180664	157.36583
1.0205078	216.71205
1.0229492	263.36026
1.0253906	280.16672
1.027832	261.3131
1.0302734	208.9777
1.0327148	147.53247
1.0351562	139.88586
1.0375977	191.34377
1.0400391	232.94055
1.0424805	231.32664
1.0449219	180.5018
1.0473633	94.543365
1.0498047	63.72386
1.0522461	150.66534
1.0546875	218.24449
1.0571289	241.1122
1.0595703	225.9742
1.0620117	198.20508
1.0644531	184.03123
1.0668945	188.93127
1.0693359	206.96747
1.0717773	238.06178
1.0742188	275.52634
1.0766602	299.27246
1.0791016	290.89767
1.081543	250.71217
1.0839844	210.07288
1.0864258	223.04889
1.0888672	290.87158
1.0913086	366.2303
1.09375	417.9263
1.0961914	434.94406
1.0986328	420.88858
1.1010742	388.66928
1.1035156	355.79865
1.105957	340.55835
1.1083984	350.71988
1.1108398	374.54294
1.1132812	392.6264
1.1157227	390.8413
1.1181641	363.4371
1.1206055	316.57248
1.1230469	270.67395
1.1254883	247.3898
1.1279297	243.21172
1.1303711	233.95027
1.1328125	203.82843
1.1352539	157.36629
1.1376953	120.44991
1.1401367	120.48415
1.1425781	140.66054
1.1450195	160.68546
1.1474609	188.69368
1.1499023	232.68771
1.1523438	280.07602
1.1547852	310.74017
1.1572266	312.39117
1.159668	287.0932
1.1621094	255.91083
1.1645508	257.00067
1.1669922	307.10742
1.1694336	376.4874
1.171875	430.40198
1.1743164	452.7644
1.1767578	446.34814
1.1791992	424.52124
1.1816406	398.40036
1.184082	370.35788
1.1865234	339.5664
1.1889648	307.73315
1.1914062	275.84586
1.1938477	240.69164
1.1962891	201.13728
1.1987305	169.59552
1.2011719	169.9716
1.2036133	202.63733
1.2060547	243.79759
1.2084961	281.346
1.2109375	315.73953
1.2133789	344.29733
1.2158203	356.24838
1.2182617	343.60254
1.2207031	309.8341
1.2231445	264.55136
1.2255859	215.37424
1.2280273	181.41664
1.2304688	209.0278
1.2329102	299.684
1.2353516	406.5659
1.237793	495.5727
1.2402344	549.25665
1.2426758	565.7643
1.2451172	557.46716
1.2475586	542.5211
1.25	533.12335
1.2524414	529.64874
1.2548828	523.58514
1.2573242	507.5864
1.2597656	485.41272
1.262207	467.66843
1.2646484	455.18036
1.2670898	437.86942
1.2695312	412.18576
1.2719727	386.84943
1.2744141	371.01465
1.2768555	366.70016
1.2792969	373.39236
1.2817383	389.8697
1.2841797	412.2371
1.2866211	436.42535
1.2890625	459.83585
1.2915039	479.20218
1.2939453	493.58582
1.2963867	513.6641
1.2988281	559.50574
1.3012695	636.113
1.3037109	720.4322
1.3061523	780.2684
1.3085938	794.3934
1.3110352	759.4992
1.3134766	692.0068
1.315918	627.2763
1.3183594	603.0833
1.3208008	625.04004
1.3232422	664.8909
1.3256836	698.83417
1.328125	723.84216
1.3305664	743.7761
1.3330078	754.43524
1.3354492	748.6881
1.3378906	732.70465
1.340332	727.5877
1.3427734	746.8418
1.3452148	776.3505
1.3476562	785.95795
1.3500977	753.77423
1.3525391	679.0333
1.3549805	582.653
1.3574219	496.3319
1.3598633	439.50348
1.3623047	403.4805
1.3647461	368.19348
1.3671875	323.7957
1.3696289	268.5823
1.3720703	201.8204
1.3745117	133.06502
1.3769531	112.6451
1.3793945	168.407
1.3818359	235.99666
1.3842773	285.5162
1.3867188	314.29565
1.3891602	331.47162
1.3916016	352.0049
1.394043	387.95462
1.3964844	435.6217
1.3989258	474.75204
1.4013672	483.92096
1.4038086	456.09927
1.40625	404.9904
1.4086914	361.20245
1.4111328	356.66348
1.4135742	398.54138
1.4160156	464.4713
1.418457	527.533
1.4208984	576.0813
1.4233398	616.52167
1.4257812	656.45636
1.4282227	689.0674
1.4306641	704.5701
1.4331055	708.71594
1.4355469	718.5716
1.4379883	743.1613
1.4404297	775.80145
1.4428711	800.7469
1.4453125	802.05304
1.4477539	775.173
1.4501953	737.8132
1.4526367	720.97095
1.4550781	732.41516
1.4575195	742.43286
1.4599609	723.59454
1.4624023	684.35126
1.4648438	651.38184
1.4672852	621.4627
1.4697266	557.57434
1.472168	436.92404
1.4746094	287.78406
1.4770508	228.31204
1.4794922	338.76163
1.4819336	486.04028
1.484375	606.1357
1.4868164	693.0099
1.4892578	763.08386
1.4916992	830.80286
1.4941406	887.4065
1.496582	911.4297
1.4990234	896.37256
1.5014648	857.7952
1.5039062	817.5597
1.5063477	792.9516
1.5087891	797.3401
1.5112305	828.66534
1.5136719	862.0917
1.5161133	873.40717
1.5185547	859.3593
1.5209961	829.9846
1.5234375	793.063
1.5258789	748.8198
1.5283203	688.0552
1.5307617	596.29144
1.5332031	473.8831
1.5356445	359.20425
1.5380859	325.12665
1.5405273	388.31326
1.5429688	490.72565
1.5454102	598.5606
1.5478516	698.806
1.550293	786.0514
1.5527344	866.9973
1.5551758	949.24506
1.5576172	1022.3704
1.5600586	1067.8274
1.5625	1084.309
1.5649414	1090.4073
1.5673828	1105.701
1.5698242	1134.5865
1.5722656	1162.8943
1.574707	1170.2823
1.5771484	1152.0795
1.5795898	1122.5585
1.5820312	1092.9629
1.5844727	1062.709
1.5869141	1036.7106
1.5893555	1028.4812
1.5917969	1043.6323
1.5942383	1078.6836
1.5966797	1124.8516
1.5991211	1157.8345
1.6015625	1145.9294
1.6040039	1083.8859
1.6064453	1006.7468
1.6088867	952.9077
1.6113281	920.3636
1.6137695	890.1502
1.6162109	870.0474
1.6186523	878.5615
1.6210938	906.0265
1.6235352	920.8138
1.6259766	897.7034
1.628418	828.87256
1.6308594	722.14764
1.6333008	594.0459
1.6357422	461.29642
1.6381836	338.05637
1.640625	241.98196
1.6430664	205.21768
1.6455078	248.78282
1.6479492	336.47565
1.6503906	427.41342
1.652832	500.83307
1.6552734	552.6952
1.6577148	588.6957
1.6601562	614.68823
1.6625977	634.63446
1.6650391	655.12994
1.6674805	681.4298
1.6699219	707.67505
1.6723633	722.92316
1.6748047	728.80853
1.6772461	744.9002
1.6796875	794.8406
1.6821289	886.69763
1.6845703	1003.569
1.6870117	1108.5013
1.6894531	1160.8203
1.6918945	1138.1045
1.6943359	1053.6786
1.6967773	956.3622
1.6992188	898.8927
1.7016602	889.9079
1.7041016	894.2841
1.706543	879.45514
1.7089844	838.56995
1.7114258	788.946
1.7138672	763.7645
1.7163086	787.1242
1.71875	849.49866
1.7211914	922.61346
1.7236328	984.23456
1.7260742	1020.9918
1.7285156	1025.4462
1.730957	997.7618
1.7333984	944.9052
1.7358398	875.33704
1.7382812	795.0185
1.7407227	708.4906
1.7431641	623.0843
1.7456055	550.37634
1.7480469	499.2487
1.7504883	468.12155
1.7529297	450.68115
1.7553711	445.5967
1.7578125	453.29736
1.7602539	469.0839
1.7626953	486.07306
1.7651367	501.42758
1.7675781	516.64166
1.7700195	534.7305
1.7724609	559.82916
1.7749023	595.86127
1.7773438	640.5761
1.7797852	683.1461
1.7822266	710.839
1.784668	715.7897
1.7871094	695.939
1.7895508	654.28107
1.7919922	597.2648
1.7944336	527.56085
1.796875	437.87006
1.7993164	320.73175
1.8017578	190.06306
1.8041992	116.18915
1.8066406	171.61604
1.809082	243.64713
1.8115234	291.52783
1.8139648	322.9203
1.8164062	356.0687
1.8188477	402.8465
1.8212891	453.38916
1.8237305	486.69418
1.8261719	495.61835
1.8286133	499.254
1.8310547	532.84985
1.8334961	612.67346
1.8359375	714.0717
1.8383789	795.2273
1.8408203	826.2353
1.8432617	799.50385
1.8457031	728.3827
1.8481445	641.90546
1.8505859	573.41125
1.8530273	536.7481
1.8554688	515.9306
1.8579102	493.30093
1.8603516	471.97305
1.862793	462.2987
1.8652344	462.24487
1.8676758	464.6019
1.8701172	471.84915
1.8725586	489.4284
1.875	509.44763
1.8774414	514.14124
1.8798828	494.62155
1.8823242	459.5358
1.8847656	423.4141
1.887207	386.93185
1.8896484	338.26147
1.8920898	276.51187
1.8945312	226.95609
1.8969727	216.92542
1.8994141	223.31346
1.9018555	206.70442
1.9042969	170.0231
1.9067383	168.79364
1.9091797	229.7271
1.9116211	310.13196
1.9140625	387.38602
1.9165039	454.41476
1.9189453	500.0316
1.9213867	513.7367
1.9238281	496.01822
1.9262695	457.06104
1.9287109	407.6615
1.9311523	353.3918
1.9335938	295.5683
1.9360352	235.61728
1.9384766	178.31564
1.940918	131.57141
1.9433594	109.59225
1.9458008	130.39053
1.9482422	184.15674
1.9506836	249.47084
1.953125	312.84042
1.9555664	366.71088
1.9580078	412.94568
1.9604492	460.57727
1.9628906	507.35733
1.965332	532.5815
1.9677734	517.57
1.9702148	465.54382
1.9726562	400.88965
1.9750977	352.33102
1.9775391	335.71646
1.9799805	353.186
1.9824219	399.8184
1.9848633	462.34335
1.9873047	525.1568
1.9897461	583.00037
1.9921875	640.2804
1.9946289	697.0791
1.9970703	743.99365
1.9995117	773.0611
2.0019531	786.3566
2.0043945	794.31134
2.006836	811.80554
2.0092773	852.2699
2.0117188	915.11835
2.0141602	982.69684
2.0166016	1037.7118
2.019043	1079.455
2.0214844	1120.1334
2.0239258	1169.7937
2.0263672	1230.244
2.0288086	1298.455
2.03125	1366.3601
2.0336914	1420.7787
2.0361328	1451.7623
2.0385742	1458.9431
2.0410156	1447.0468
2.043457	1421.1796
2.0458984	1389.0223
2.0483398	1357.6852
2.0507812	1322.4319
2.0532227	1267.4805
2.055664	1182.0076
2.0581055	1069.4807
2.0605469	943.7061
2.0629883	823.796
2.0654297	729.1022
2.067871	664.03687
2.0703125	609.70044
2.072754	545.5568
2.0751953	475.50717
2.0776367	429.87677
2.0800781	440.8998
2.0825195	506.41388
2.084961	591.4187
2.0874023	657.1228
2.0898438	679.51025
2.0922852	660.4685
2.0947266	628.71704
2.097168	622.1524
2.0996094	659.46674
2.1020508	731.38513
2.1044922	812.80145
2.1069336	873.23004
2.109375	890.0647
2.1118164	866.0786
2.1142578	835.08887
2.1166992	839.18787
2.1191406	886.43854
2.121582	942.06476
2.1240234	963.7174
2.1264648	932.2226
2.1289062	862.0608
2.1313477	791.63184
2.133789	749.96783
2.1362305	730.08105
2.1386719	711.0864
2.1411133	691.13983
2.1435547	680.8493
2.145996	680.2368
2.1484375	681.1283
2.150879	681.66376
2.1533203	681.4869
2.1557617	672.05475
2.1582031	644.219
2.1606445	596.7199
2.163086	530.29016
2.1655273	444.90326
2.1679688	355.94174
2.1704102	310.37204
2.1728516	341.12396
2.175293	403.191
2.1777344	440.2131
2.1801758	427.86252
2.1826172	375.48273
2.1850586	333.566
2.1875	364.19415
2.1899414	448.71176
2.1923828	525.0226
2.1948242	561.0027
2.1972656	557.2728
2.199707	538.3707
2.2021484	540.0213
2.2045898	580.7883
2.2070312	642.40076
2.2094727	688.85724
2.211914	694.1264
2.2143555	659.3936
2.2167969	622.3217
2.2192383	636.3522
2.2216797	706.3706
2.224121	779.82574
2.2265625	808.7187
2.229004	778.618
2.2314453	700.74713
2.2338867	597.07916
2.2363281	495.36652
2.2387695	432.68475
2.241211	434.19772
2.2436523	472.87234
2.2460938	497.0579
2.2485352	475.62314
2.2509766	406.22897
2.253418	314.46936
2.2558594	250.97733
2.2583008	244.43304
2.2607422	244.85764
2.2631836	200.57764
2.265625	105.8322
2.2680664	13.531403
2.2705078	120.17106
2.2729492	183.09926
2.2753906	192.5345
2.277832	184.15279
2.2802734	242.79839
2.2827148	369.64868
2.2851562	498.43793
2.2875977	583.0472
2.290039	599.7456
2.2924805	546.7977
2.2949219	457.13638
2.2973633	415.4696
2.2998047	485.95685
2.302246	604.06006
2.3046875	690.366
2.307129	714.79614
2.3095703	680.48224
2.3120117	612.2333
2.3144531	556.32526
2.3168945	558.1615
2.319336	604.2351
2.3217773	632.64795
2.3242188	599.24384
2.3266602	504.9583
2.3291016	398.99112
2.331543	369.3658
2.3339844	445.35666
2.3364258	550.7463
2.3388672	620.7905
2.3413086	628.76373
2.34375	579.7979
2.3461914	510.53442
2.3486328	477.86728
2.3510742	514.53827
2.3535156	593.6855
2.355957	666.0919
2.3583984	694.7286
2.3608398	664.41876
2.3632812	589.6487
2.3657227	519.1906
2.368164	513.44495
2.3706055	575.6596
2.3730469	648.17914
2.3754883	682.13043
2.3779297	665.94556
2.380371	628.7642
2.3828125	629.77466
2.385254	706.1048
2.3876953	827.5152
2.3901367	934.7363
2.3925781	982.866
2.3950195	953.5002
2.397461	856.9196
2.3999023	728.9662
2.4023438	618.7119
2.4047852	560.59064
2.4072266	542.2912
2.409668	517.27747
2.4121094	447.80612
2.4145508	328.21487
2.4169922	206.17134
2.4194336	223.02733
2.421875	351.61298
2.4243164	458.90485
2.4267578	502.06033
2.4291992	476.00076
2.4316406	396.64096
2.434082	294.09665
2.4365234	209.27516
2.4389648	183.04958
2.4414062	204.15796
2.4438477	224.07814
2.446289	217.09422
2.4487305	176.77278
2.4511719	110.08324
2.4536133	62.806213
2.4560547	118.7801
2.458496	187.59572
2.4609375	224.65883
2.463379	222.30959
2.4658203	194.302
2.4682617	178.428
2.4707031	208.21936
2.4731445	264.57333
2.475586	317.80344
2.4780273	359.02567
2.4804688	390.03064
2.4829102	410.52618
2.4853516	416.79343
2.487793	407.50494
2.4902344	383.83856
2.4926758	347.1247
2.4951172	308.81116
2.4975586	301.53296
2.5	341.99402
2.5024414	394.02408
2.5048828	417.45093
2.5073242	403.917
2.5097656	374.01505
2.512207	357.2402
2.5146484	366.83237
2.5170898	393.19147
2.5195312	417.157
2.5219727	419.68643
2.524414	388.87033
2.5268555	328.8737
2.5292969	266.4532
2.5317383	243.82794
2.5341797	272.00955
2.536621	315.11456
2.5390625	344.12674
2.541504	352.32547
2.5439453	348.17932
2.5463867	345.5587
2.5488281	351.15338
2.5512695	362.58405
2.553711	379.63965
2.5561523	405.1469
2.5585938	431.93353
2.5610352	442.50208
2.5634766	426.8147
2.565918	396.9553
2.5683594	383.92252
2.5708008	408.52768
2.5732422	456.65802
2.5756836	499.58868
2.578125	518.99335
2.5805664	512.0279
2.5830078	487.58408
2.5854492	459.7851
2.5878906	443.95187
2.590332	453.32162
2.5927734	485.8317
2.5952148	516.0135
2.5976562	514.2994
2.6000977	473.7537
2.602539	422.22836
2.6049805	404.80423
2.6074219	429.674
2.6098633	457.81277
2.6123047	456.05197
2.614746	421.65997
2.6171875	381.65808
2.619629	378.1253
2.6220703	421.33658
2.6245117	474.3976
2.6269531	500.69568
2.6293945	488.67453
2.631836	448.4074
2.6342773	402.21042
2.6367188	376.15634
2.6391602	387.15866
2.6416016	427.62378
2.644043	472.7844
2.6464844	500.57153
2.6489258	499.62448
2.6513672	468.35342
2.6538086	412.61832
2.65625	344.31958
2.6586914	279.6628
2.6611328	233.68916
2.6635742	208.67929
2.6660156	189.2388
2.668457	158.36171
2.6708984	117.15009
2.6733398	100.30791
2.6757812	134.65265
2.6782227	178.16154
2.680664	201.59561
2.6831055	203.61732
2.6855469	203.59526
2.6879883	230.43423
2.6904297	292.29172
2.692871	370.19873
2.6953125	441.8367
2.697754	494.12762
2.7001953	525.594
2.7026367	541.7915
2.7050781	546.11237
2.7075195	538.42694
2.709961	528.6224
2.7124023	544.44293
2.7148438	602.5535
2.7172852	677.5506
2.7197266	729.22107
2.722168	741.0827
2.7246094	727.4597
2.7270508	715.32587
2.7294922	721.5125
2.7319336	745.011
2.734375	771.18475
2.7368164	779.509
2.7392578	759.70685
2.7416992	727.0614
2.7441406	711.99335
2.746582	723.0529
2.7490234	735.4886
2.7514648	723.76337
2.7539062	685.7418
2.7563477	642.1259
2.758789	626.52594
2.7612305	662.5398
2.7636719	734.857
2.7661133	799.0772
2.7685547	819.74255
2.770996	797.20685
2.7734375	771.9467
2.775879	789.50757
2.7783203	844.4664
2.7807617	891.51337
2.7832031	903.6046
2.7856445	890.5719
2.788086	877.223
2.7905273	878.9715
2.7929688	901.29626
2.7954102	945.4232
2.7978516	1000.1934
2.800293	1042.1193
2.8027344	1054.8943
2.8051758	1044.796
2.8076172	1035.8135
2.8100586	1049.6299
2.8125	1088.3923
2.8149414	1134.4987
2.8173828	1163.527
2.8198242	1159.5344
2.8222656	1127.2782
2.824707	1094.0121
2.8271484	1090.0066
2.8295898	1116.2844
2.8320312	1140.4702
2.8344727	1129.4745
2.836914	1078.155
2.8393555	1011.9951
2.8417969	968.0874
2.8442383	968.13873
2.8466797	1005.1556
2.849121	1052.103
2.8515625	1077.0867
2.854004	1056.0726
2.8564453	984.1837
2.8588867	884.1094
2.8613281	804.9064
2.8637695	792.52246
2.866211	837.93823
2.8686523	883.89935
2.8710938	883.2649
2.8735352	829.7871
2.8759766	759.482
2.878418	731.1605
2.8808594	776.03625
2.8833008	864.0861
2.8857422	941.50757
2.8881836	971.2609
2.890625	943.8366
2.8930664	877.3556
2.8955078	812.5185
2.8979492	794.31226
2.9003906	836.96735
2.902832	907.94727
2.9052734	954.9022
2.9077148	937.842
2.9101562	851.0391
2.9125977	743.5859
2.915039	716.44836
2.9174805	814.7889
2.9199219	952.57385
2.9223633	1033.289
2.9248047	1021.2244
2.927246	942.641
2.9296875	872.2198
2.932129	883.8897
2.9345703	970.54504
2.9370117	1058.666
2.9394531	1090.0413
2.9418945	1053.3322
2.944336	979.3433
2.9467773	923.27106
2.9492188	931.07025
2.9516602	1001.3114
2.9541016	1088.8527
2.956543	1143.6278
2.9589844	1139.7844
2.9614258	1090.2867
2.9638672	1046.0275
2.9663086	1060.8635
2.96875	1136.3516
2.9711914	1224.993
2.9736328	1282.6722
2.9760742	1292.5576
2.9785156	1261.0543
2.980957	1213.0283
2.9833984	1184.9939
2.9858398	1199.2524
2.9882812	1238.3054
2.9907227	1261.3878
2.993164	1243.0397
2.9956055	1192.4604
2.9980469	1148.0911
3.0004883	1147.5267
3.0029297	1187.0032
3.005371	1222.306
3.0078125	1212.5464
3.010254	1150.2654
3.0126953	1062.0024
3.0151367	994.9934
3.0175781	990.78375
3.0200195	1043.97
3.022461	1098.2496
3.0249023	1097.0852
3.0273438	1027.3241
3.0297852	930.01697
3.0322266	876.0229
3.034668	899.0572
3.0371094	954.8295
3.0395508	975.8221
3.0419922	928.903
3.0444336	829.58057
3.046875	731.7769
3.0493164	688.4927
3.0517578	696.4298
3.0541992	706.4597
3.0566406	681.6832
3.059082	617.1126
3.0615234	530.8653
3.0639648	450.8675
3.0664062	400.19342
3.0688477	383.22632
3.071289	386.71362
3.0737305	394.10168
3.0761719	391.67896
3.0786133	367.68982
3.0810547	315.96066
3.083496	243.0626
3.0859375	171.78513
3.088379	132.25804
3.0908203	125.53428
3.0932617	121.99204
3.0957031	112.88179
3.0981445	108.74598
3.100586	112.15585
3.1030273	111.51865
3.1054688	96.43319
3.1079102	65.78876
3.1103516	42.49062
3.112793	73.94074
3.1152344	114.50163
3.1176758	128.28996
3.1201172	101.44756
3.1225586	41.180546
3.125	75.34998
3.1274414	170.57106
3.1298828	247.55403
3.1323242	287.93936
3.1347656	287.88513
3.137207	258.40244
3.1396484	231.53748
3.1420898	254.31154
3.1445312	324.70905
3.1469727	390.74832
3.149414	411.0807
3.1518555	372.65152
3.1542969	292.7757
3.1567383	217.83939
3.1591797	199.77512
3.161621	218.26698
3.1640625	214.84315
3.166504	169.71693
3.1689453	112.12764
3.1713867	140.25768
3.1738281	233.01431
3.1762695	311.3926
3.178711	348.18338
3.1811523	342.5273
3.1835938	316.94244
3.1860352	307.46313
3.1884766	329.97363
3.190918	367.06076
3.1933594	401.92975
3.1958008	431.69632
3.1982422	452.9534
3.2006836	455.1188
3.203125	432.09525
3.2055664	394.77438
3.2080078	367.13623
3.2104492	361.60852
3.2128906	362.59558
3.215332	347.16486
3.2177734	308.85257
3.2202148	263.35938
3.2226562	241.9374
3.2250977	261.9291
3.227539	303.39603
3.2299805	339.16226
3.2324219	355.91855
3.2348633	352.45734
3.2373047	335.83255
3.239746	318.60327
3.2421875	313.58856
3.244629	324.2433
3.2470703	340.34024
3.2495117	345.90103
3.2519531	329.38333
3.2543945	289.65277
3.256836	238.86922
3.2592773	200.2215
3.2617188	189.81335
3.2641602	196.39455
3.2666016	203.65477
3.269043	211.53772
3.2714844	223.62216
3.2739258	233.09166
3.2763672	231.0806
3.2788086	219.71796
3.28125	210.23619
3.2836914	208.14331
3.2861328	206.64703
3.2885742	199.49081
3.2910156	193.335
3.293457	204.53848
3.2958984	236.85226
3.2983398	272.12558
3.3007812	290.79904
3.3032227	290.95624
3.305664	295.95203
3.3081055	335.93573
3.3105469	406.8556
3.3129883	476.3608
3.3154297	517.5307
3.317871	523.5492
3.3203125	511.29016
3.322754	513.00244
3.3251953	545.78394
3.3276367	589.5813
3.3300781	611.3002
3.3325195	595.6763
3.334961	552.021
3.3374023	504.14096
3.3398438	476.40387
3.3422852	484.01248
3.3447266	524.9132
3.347168	577.19336
3.3496094	612.5505
3.3520508	615.25446
3.3544922	592.3696
3.3569336	570.0757
3.359375	572.61346
3.3618164	596.9275
3.3642578	616.5643
3.3666992	608.59686
3.3691406	571.14166
3.371582	525.24994
3.3740234	502.6418
3.3764648	519.38763
3.3789062	561.0512
3.3813477	599.69836
3.383789	612.8553
3.3862305	591.0919
3.3886719	544.6285
3.3911133	507.51175
3.3935547	516.7924
3.395996	566.6394
3.3984375	614.7153
3.400879	630.35956
3.4033203	612.3098
3.4057617	578.9211
3.4082031	550.26917
3.4106445	536.3881
3.413086	536.12054
3.4155273	538.68176
3.4179688	527.8323
3.4204102	494.1244
3.4228516	448.92236
3.425293	424.58737
3.4277344	442.5211
3.4301758	480.67935
3.4326172	500.54535
3.4350586	482.64703
3.4375	433.45087
3.4399414	379.6989
3.4423828	355.05582
3.4448242	372.39905
3.4472656	409.40378
3.449707	433.2046
3.4521484	422.085
3.4545898	373.73584
3.4570312	313.29797
3.4594727	293.84497
3.461914	340.3258
3.4643555	407.5464
3.4667969	448.77686
3.4692383	445.79987
3.4716797	404.66513
3.474121	353.41653
3.4765625	335.46054
3.479004	371.21408
3.4814453	430.32532
3.4838867	472.08105
3.4863281	472.84937
3.4887695	428.2332
3.491211	355.2439
3.4936523	297.8097
3.4960938	306.19598
3.4985352	365.67184
3.5009766	420.7538
3.503418	437.3705
3.5058594	405.3499
3.5083008	334.14706
3.5107422	260.53366
3.5131836	253.95612
3.515625	326.5842
3.5180664	408.81464
3.5205078	453.40186
3.5229492	445.27548
3.5253906	391.17783
3.527832	314.83228
3.5302734	254.82593
3.5327148	247.87392
3.5351562	281.57065
3.5375977	311.2872
3.540039	307.72842
3.5424805	261.27512
3.5449219	177.9279
3.5473633	82.54066
3.5498047	80.56955
3.552246	155.77248
3.5546875	200.50688
3.557129	196.05661
3.5595703	146.27142
3.5620117	82.44289
3.5644531	100.32445
3.5668945	172.70943
3.569336	223.81546
3.5717773	234.4965
3.5742188	204.12555
3.5766602	147.52948
3.5791016	110.70438
3.581543	151.85881
3.5839844	223.1933
3.5864258	276.99222
3.5888672	295.8564
3.5913086	276.5554
3.59375	226.76941
3.5961914	166.68869
3.5986328	136.98917
3.6010742	167.8341
3.6035156	221.59845
3.605957	261.73788
3.6083984	273.52853
3.6108398	253.91383
3.6132812	208.04242
3.6157227	150.5734
3.618164	116.95772
3.6206055	145.20062
3.6230469	199.53377
3.6254883	238.90562
3.6279297	246.70012
3.630371	220.2659
3.6328125	167.21019
3.635254	107.48271
3.6376953	91.47546
3.6401367	138.30946
3.6425781	188.68817
3.6450195	213.39584
3.647461	203.33481
3.6499023	161.66777
3.6523438	106.24956
3.6547852	83.78471
3.6572266	118.78472
3.659668	155.04779
3.6621094	164.57014
3.6645508	144.02724
3.6669922	105.37673
3.6694336	81.68445
3.671875	104.7356
3.6743164	142.20604
3.6767578	164.73691
3.6791992	163.9548
3.6816406	143.72238
3.684082	120.62018
3.6865234	120.75858
3.6889648	148.09424
3.6914062	179.5189
3.6938477	197.58305
3.696289	195.84879
3.6987305	176.90979
3.7011719	154.51303
3.7036133	152.66893
3.7060547	180.44656
3.708496	217.66228
3.7109375	242.30489
3.713379	242.81514
3.7158203	218.31586
3.7182617	180.25781
3.7207031	153.58476
3.7231445	157.9758
3.725586	176.4996
3.7280273	182.31764
3.7304688	167.0957
3.7329102	142.51126
3.7353516	134.92076
3.737793	156.11182
3.7402344	185.2671
3.7426758	202.42436
3.7451172	203.04942
3.7475586	195.78755
3.75	195.27681
3.7524414	207.50647
3.7548828	222.98253
3.7573242	229.21661
3.7597656	222.77425
3.762207	211.08519
3.7646484	205.93831
3.7670898	212.36221
3.7695312	225.38058
3.7719727	237.53902
3.774414	243.51544
3.7768555	239.95941
3.7792969	226.54036
3.7817383	208.24115
3.7841797	194.9308
3.786621	194.78148
3.7890625	205.40723
3.791504	215.27518
3.7939453	213.88188
3.7963867	200.20886
3.7988281	186.03285
3.8012695	187.69702
3.803711	206.19019
3.8061523	226.89412
3.8085938	237.17133
3.8110352	231.90735
3.8134766	212.8156
3.815918	190.68385
3.8183594	183.9535
3.8208008	199.25264
3.8232422	219.76353
3.8256836	226.39659
3.828125	211.96767
3.8305664	180.86977
3.8330078	146.16986
3.8354492	125.61935
3.8378906	126.93123
3.840332	136.67409
3.8427734	139.5982
3.8452148	131.11969
3.8476562	115.1828
3.8500977	100.85701
3.852539	98.0465
3.8549805	107.86636
3.8574219	120.50145
3.8598633	125.59859
3.8623047	118.40323
3.864746	101.87669
3.8671875	88.44904
3.869629	92.693565
3.8720703	109.16042
3.8745117	120.30867
3.8769531	116.07903
3.8793945	96.33783
3.881836	69.95216
3.8842773	55.626083
3.8867188	65.64174
3.8891602	82.52022
3.8916016	91.70714
3.894043	89.61255
3.8964844	78.650116
3.8989258	65.33967
3.9013672	57.532063
3.9038086	57.575493
3.90625	60.267357
3.9086914	60.645954
3.9111328	57.018364
3.9135742	49.387054
3.9160156	38.737377
3.918457	28.103117
3.9208984	24.22319
3.9233398	30.333908
3.9257812	39.534615
3.9282227	46.457436
3.930664	48.39261
3.9331055	43.642372
3.9355469	31.864895
3.9379883	15.686984
3.9404297	13.225887
3.942871	29.530981
3.9453125	42.54874
3.947754	47.761204
3.9501953	43.716003
3.9526367	30.656471
3.9550781	10.757998
3.9575195	13.203052
3.959961	34.503117
3.9624023	49.325123
3.9648438	54.481884
3.9672852	49.411324
3.9697266	35.922783
3.972168	17.439539
3.9746094	4.1982045
3.9770508	20.180275
3.9794922	31.875343
3.9819336	36.71784
3.984375	34.886585
3.9868164	28.100409
3.9892578	18.930305
3.9916992	10.187815
3.9941406	6.686649
3.996582	11.49917
3.9990234	18.275139
4.001465	25.105238
4.0039062	30.97027
4.0063477	34.547028
4.008789	34.56043
4.0112305	30.236658
4.013672	21.745281
4.0161133	11.664989
4.0185547	12.825486
4.020996	24.597216
4.0234375	34.75604
4.025879	39.954945
4.0283203	39.454224
4.0307617	34.180668
4.033203	26.314009
4.0356445	19.964596
4.038086	21.611769
4.0405273	30.027487
4.0429688	38.022915
4.04541	41.03834
4.0478516	37.173687
4.050293	27.391125
4.0527344	17.713896
4.055176	21.597109
4.057617	33.62345
4.0600586	42.55145
4.0625	44.56868
4.0649414	39.1128
4.067383	28.429453
4.069824	19.4504
4.0722656	23.088726
4.074707	33.031715
4.0771484	39.719013
4.07959	40.126728
4.0820312	34.30799
4.0844727	24.741825
4.086914	17.471619
4.0893555	19.831516
4.091797	26.261583
4.0942383	29.721876
4.0966797	28.292463
4.099121	22.585714
4.1015625	15.31967
4.104004	12.992405
4.1064453	18.33434
4.1088867	23.920029
4.111328	25.566244
4.1137695	22.15667
4.116211	14.747677
4.1186523	8.717305
4.1210938	13.934758
4.123535	21.56496
4.1259766	25.431328
4.128418	24.1574
4.1308594	18.50409
4.133301	12.127423
4.135742	13.248612
4.1381836	20.103006
4.140625	25.241814
4.1430664	26.184288
4.145508	22.909597
4.147949	17.187578
4.1503906	13.046507
4.152832	14.816353
4.1552734	19.49334
4.157715	22.949657
4.1601562	23.85183
4.1625977	22.27694
4.165039	19.033327
4.1674805	15.493597
4.169922	13.520508
4.1723633	14.147499
4.1748047	16.031635
4.177246	17.301704
4.1796875	17.059217
4.182129	15.265258
4.1845703	12.511399
4.1870117	10.190117
4.189453	10.28808
4.1918945	12.586465
4.194336	14.729854
4.1967773	15.122348
4.1992188	13.40989
4.20166	10.378299
4.2041016	8.001627
4.206543	8.360016
4.2089844	10.245913
4.211426	11.480387
4.213867	11.278998
4.2163086	9.792486
4.21875	7.7523236
4.2211914	6.2533045
4.223633	6.0656013
4.226074	6.6375937
4.2285156	6.9788313
4.230957	6.616611
4.2333984	5.538942
4.23584	4.0825696
4.2382812	2.9682863
4.2407227	3.0037463
4.243164	3.7339811
4.2456055	4.296954
4.248047	4.3824034
4.2504883	3.9884949
4.2529297	3.2964966
4.255371	2.6501014
4.2578125	2.4136744
4.260254	2.5494173
4.2626953	2.709284
4.2651367	2.7366207
4.267578	2.6970854
4.2700195	2.695288
4.272461	2.7461212
4.2749023	2.7831304
4.2773438	2.7261562
4.279785	2.548507
4.2822266	2.3366868
4.284668	2.2635293
4.2871094	2.3786995
4.289551	2.5124993
4.291992	2.4916925
4.2944336	2.3021762
4.296875	2.1005118
4.2993164	2.0986404
4.301758	2.3066132
4.304199	2.5156705
4.3066406	2.5510669
4.309082	2.3909757
4.3115234	2.1499925
4.313965	1.9918506
4.3164062	1.9838077
4.3188477	2.0378695
4.321289	2.0202246
4.3237305	1.8521093
4.326172	1.5420903
4.3286133	1.2056433
4.3310547	1.0477699
4.333496	1.1365578
4.3359375	1.2746785
4.338379	1.2953472
4.3408203	1.1518985
4.3432617	0.8731595
4.345703	0.5569463
4.3481445	0.436654
4.350586	0.614229
4.3530273	0.80496854
4.3554688	0.8779987
4.35791	0.8123426
4.3603516	0.63643247
4.362793	0.42993253
4.3652344	0.3600783
4.367676	0.48332223
4.370117	0.6150072
4.3725586	0.66190594
4.375	0.6095969
4.3774414	0.4824185
4.379883	0.34301752
4.382324	0.30315134
4.3847656	0.38402218
4.387207	0.46806842
4.3896484	0.49287614
4.39209	0.45125848
4.3945312	0.36491364
4.3969727	0.2720218
4.399414	0.21781905
4.4018555	0.21715297
4.404297	0.23309265
4.4067383	0.23406382
4.4091797	0.21474615
4.411621	0.18449236
4.4140625	0.15718763
4.416504	0.14510301
4.4189453	0.15502596
4.4213867	0.1817767
4.423828	0.21012391
4.4262695	0.22483596
4.428711	0.2172371
4.4311523	0.18732344
4.4335938	0.14404455
4.436035	0.10700392
4.4384766	0.10556472
4.440918	0.13799362
4.4433594	0.17258373
4.445801	0.1891711
4.448242	0.18066736
4.4506836	0.15115641
4.453125	0.11796594
4.4555664	0.10588556
4.458008	0.11844801
4.460449	0.13346471
4.4628906	0.13718767
4.465332	0.12766762
4.4677734	0.11018956
4.470215	0.09549913
4.4726562	0.09371424
4.4750977	0.10320172
4.477539	0.11354005
4.4799805	0.11716815
4.482422	0.11212757
4.4848633	0.10074354
4.4873047	0.09019188
4.489746	0.08920774
4.4921875	0.09786665
4.494629	0.10662646
4.4970703	0.10628018
4.4995117	0.09350125
4.501953	0.07141874
4.5043945	0.048688527
4.506836	0.044326495
4.5092773	0.057890836
4.5117188	0.06853219
4.51416	0.06668965
4.5166016	0.0522691
4.519043	0.029861357
4.5214844	0.011388741
4.523926	0.020753335
4.526367	0.030716658
4.5288086	0.030956313
4.53125	0.02244527
4.5336914	0.008638735
4.536133	0.0061823674
4.538574	0.017342666
4.5410156	0.022975197
4.543457	0.02280745
4.5458984	0.0191116
4.54834	0.015238955
4.5507812	0.014118003
4.5532227	0.01392234
4.555664	0.012147231
4.5581055	0.008707568
4.560547	0.008232582
4.5629883	0.012900869
4.5654297	0.01712323
4.567871	0.018307308
4.5703125	0.01534888
4.572754	0.009048983
4.5751953	0.0025756648
4.5776367	0.00795675
4.580078	0.013901611
4.5825195	0.016791219
4.584961	0.015771642
4.5874023	0.011318905
4.5898438	0.005161863
4.592285	0.005395006
4.5947266	0.01079607
4.597168	0.014158974
4.5996094	0.014445947
4.602051	0.011989533
4.604492	0.008454796
4.6069336	0.0072218287
4.609375	0.00990081
4.6118164	0.01265798
4.614258	0.013771691
4.616699	0.012973804
4.6191406	0.010732265
4.621582	0.008464976
4.6240234	0.007540622
4.626465	0.008250932
4.6289062	0.009447785
4.6313477	0.010127835
4.633789	0.010235843
4.6362305	0.009977993
4.638672	0.00954934
4.6411133	0.008817376
4.6435547	0.007949199
4.645996	0.00772306
4.6484375	0.008084062
4.650879	0.008413315
4.6533203	0.008338334
4.6557617	0.0078125
4.658203	0.006738531
4.6606445	0.0056598815
4.663086	0.005402857
4.6655273	0.00556472
4.6679688	0.0059425617
4.67041	0.0059772492
4.6728516	0.005473666
4.675293	0.00479681
4.6777344	0.0041790903
4.680176	0.0041205166
4.682617	0.004262869
4.6850586	0.0042624823
4.6875	0.003993893
4.6899414	0.0037108485
4.692383	0.0036697388
4.694824	0.004106802
4.6972656	0.0045342
4.699707	0.004630089
4.7021484	0.0041967193
4.70459	0.0035261384
4.7070312	0.0030653605
4.7094727	0.0030560303
4.711914	0.0034673614
4.7143555	0.0038482714
4.716797	0.003753172
4.7192383	0.003115548
4.7216797	0.0022364806
4.724121	0.0017762673
4.7265625	0.0020995226
4.729004	0.0026301472
4.7314453	0.00296114
4.7338867	0.0028932423
4.736328	0.002532573
4.7387695	0.0022482132
4.741211	0.0019603693
4.7436523	0.0019526238
4.7460938	0.0020710425
4.748535	0.0022970408
4.7509766	0.002400196
4.753418	0.0022758457
4.7558594	0.0022066643
4.758301	0.0021707243
4.760742	0.0021305073
4.7631836	0.0023361028
4.765625	0.002439606
4.7680664	0.0026116688
4.770508	0.0027194216
4.772949	0.0025356987
4.7753906	0.002113489
4.777832	0.0017310228
4.7802734	0.0016616618
4.782715	0.0020938742
4.7851562	0.0027595074
4.7875977	0.0031382006
4.790039	0.0031293002
4.7924805	0.0027274324
4.794922	0.0020145406
4.7973633	0.0013819148
4.7998047	0.0016995249
4.802246	0.0025054258
4.8046875	0.0029872477
4.807129	0.003068543
4.8095703	0.0025566854
4.8120117	0.0018012262
4.814453	0.0011904462
4.8168945	0.0014752595
4.819336	0.0021911107
4.8217773	0.002519448
4.8242188	0.0025193093
4.82666	0.0020529476
4.8291016	0.0014068581
4.831543	0.0011019619
4.8339844	0.0014246684
4.836426	0.0017563583
4.838867	0.0018027369
4.8413086	0.0016091436
4.84375	0.0010777732
4.8461914	5.264227E-4
4.848633	6.272829E-4
4.851074	9.157372E-4
4.8535156	0.0011406688
4.855957	0.001200346
4.8583984	0.0010502362
4.86084	6.077903E-4
4.8632812	2.7629855E-4
4.8657227	3.4846485E-4
4.868164	6.118102E-4
4.8706055	7.038406E-4
4.873047	7.6327974E-4
4.8754883	6.5385515E-4
4.8779297	3.8126716E-4
4.880371	1.2546136E-4
4.8828125	5.146636E-4
4.885254	7.61328E-4
4.8876953	8.024807E-4
4.8901367	7.506332E-4
4.892578	6.674151E-4
4.8950195	3.9765253E-4
4.897461	1.0745836E-4
4.8999023	2.0655802E-4
4.9023438	3.4426918E-4
4.904785	4.943872E-4
4.9072266	3.4013754E-4
4.909668	2.9221477E-4
4.9121094	1.3601148E-4
4.914551	1.4654857E-4
4.916992	1.0683145E-4
4.9194336	1.628143E-4
4.921875	1.9548851E-4
4.9243164	1.7969492E-4
4.926758	1.1962894E-4
4.929199	6.714951E-5
4.9316406	1.3052959E-4
4.934082	1.0999318E-4
4.9365234	1.0857153E-4
4.938965	9.29918E-5
4.9414062	9.811432E-5
4.9438477	1.0750748E-4
4.946289	7.3107454E-5
4.9487305	2.4868783E-5
4.951172	7.131444E-5
4.9536133	5.1880674E-5
4.9560547	5.862732E-5
4.958496	5.0827173E-5
4.9609375	3.3295117E-5
4.963379	4.023421E-5
4.9658203	3.258665E-5
4.9682617	6.7846406E-5
4.970703	9.027887E-5
4.9731445	3.898324E-5
4.975586	1.2000032E-4
4.9780273	3.977142E-5
4.9804688	1.2908397E-4
4.98291	1.1174331E-4
4.9853516	7.3836396E-5
4.987793	2.3595732E-5
4.9902344	8.661121E-5
4.992676	5.2165666E-5
4.995117	8.574796E-5
4.9975586	5.0206374E-5



DATASET #2

Name: FAS H2 (cm/s)
Num Points: 2044
Info: 

X, Y Data:
0.009765625	4.613953
0.012207031	5.464178
0.014648438	6.1398196
0.017089844	6.594639
0.01953125	6.822923
0.021972656	6.925555
0.024414062	7.096974
0.026855469	7.454112
0.029296875	7.857355
0.03173828	8.011994
0.034179688	7.7954807
0.036621094	7.5511584
0.0390625	8.001206
0.041503906	9.401389
0.043945312	11.107704
0.04638672	12.280858
0.048828125	12.390423
0.05126953	11.303205
0.053710938	9.2438545
0.056152344	6.74812
0.05859375	4.7681875
0.061035156	4.614047
0.06347656	5.944313
0.06591797	7.289078
0.068359375	7.940887
0.07080078	7.7722225
0.07324219	7.225953
0.075683594	7.4108152
0.078125	9.066838
0.080566406	11.362151
0.08300781	12.915732
0.08544922	12.652313
0.087890625	10.012218
0.09033203	5.1173887
0.09277344	2.20586
0.095214844	8.751882
0.09765625	14.52399
0.10009766	17.897058
0.10253906	18.089079
0.10498047	15.0817
0.10742188	9.618954
0.10986328	3.3137782
0.11230469	4.5667143
0.11474609	9.351023
0.1171875	11.793056
0.11962891	11.309163
0.12207031	8.254838
0.12451172	5.0006623
0.12695312	7.893433
0.12939453	13.571278
0.13183594	17.742899
0.13427734	18.58134
0.13671875	15.216848
0.13916016	8.196579
0.14160156	6.1828604
0.14404297	16.082857
0.14648438	25.022005
0.14892578	29.44372
0.15136719	27.769777
0.1538086	20.111801
0.15625	8.507821
0.1586914	6.772002
0.16113281	17.6213
0.16357422	24.364534
0.16601562	25.29933
0.16845703	21.126131
0.17089844	14.921799
0.17333984	12.535276
0.17578125	15.617329
0.17822266	18.096909
0.18066406	16.827793
0.18310547	12.165962
0.18554688	9.350752
0.18798828	15.217096
0.19042969	23.002623
0.1928711	27.548223
0.1953125	26.632784
0.1977539	19.68471
0.20019531	8.06291
0.20263672	8.149066
0.20507812	21.03131
0.20751953	29.291685
0.20996094	29.904438
0.21240234	22.567074
0.21484375	11.731946
0.21728516	15.546464
0.21972656	27.859533
0.22216797	34.619133
0.22460938	32.670715
0.22705078	23.796213
0.22949219	17.869532
0.2319336	25.90335
0.234375	35.554035
0.2368164	37.901546
0.23925781	31.313625
0.24169922	19.18666
0.24414062	14.282119
0.24658203	24.142603
0.24902344	32.62669
0.25146484	34.499897
0.25390625	30.075008
0.25634766	22.368505
0.25878906	16.948626
0.26123047	19.07931
0.26367188	25.093464
0.26611328	30.194166
0.2685547	32.692818
0.2709961	32.104694
0.2734375	28.384647
0.2758789	21.978542
0.2783203	14.801271
0.28076172	13.718414
0.28320312	22.525171
0.28564453	33.937115
0.28808594	43.37409
0.29052734	47.58699
0.29296875	43.947674
0.29541016	31.495352
0.29785156	13.722919
0.30029297	19.518711
0.30273438	40.9097
0.30517578	55.804165
0.3076172	59.04105
0.3100586	49.883266
0.3125	32.484253
0.3149414	21.287186
0.3173828	33.791283
0.31982422	50.676155
0.32226562	62.600437
0.32470703	69.27475
0.32714844	71.532005
0.32958984	68.54549
0.33203125	59.762093
0.33447266	51.933945
0.33691406	61.295033
0.33935547	86.484764
0.34179688	110.64158
0.34423828	122.77083
0.3466797	120.36119
0.3491211	109.87007
0.3515625	104.84206
0.3540039	114.15946
0.3564453	131.00362
0.35888672	143.79623
0.36132812	146.46988
0.36376953	138.60182
0.36621094	122.74348
0.36865234	101.85283
0.37109375	78.349434
0.37353516	55.009354
0.37597656	35.644287
0.37841797	23.562487
0.38085938	20.269846
0.38330078	28.160398
0.3857422	44.92125
0.3881836	64.048294
0.390625	79.305046
0.3930664	85.53706
0.3955078	79.711006
0.39794922	62.10251
0.40039062	36.896942
0.40283203	16.6665
0.40527344	30.604267
0.40771484	51.748528
0.41015625	66.783844
0.41259766	73.17099
0.41503906	70.30262
0.41748047	59.98571
0.41992188	48.06333
0.42236328	45.405533
0.4248047	56.125427
0.4272461	69.52789
0.4296875	76.12392
0.4321289	74.0019
0.4345703	70.418236
0.43701172	76.25063
0.43945312	89.15882
0.44189453	96.472206
0.44433594	89.957245
0.44677734	69.68347
0.44921875	44.29613
0.45166016	34.35456
0.45410156	47.739773
0.45654297	63.888126
0.45898438	77.43118
0.46142578	87.04489
0.4638672	86.79424
0.4663086	72.01467
0.46875	53.704308
0.4711914	68.75367
0.4736328	108.49445
0.47607422	140.42433
0.47851562	150.49963
0.48095703	137.29797
0.48339844	110.62897
0.48583984	89.61646
0.48828125	88.02155
0.49072266	94.602
0.49316406	95.318825
0.49560547	90.26634
0.49804688	85.90938
0.5004883	83.07568
0.5029297	75.86844
0.5053711	60.95354
0.5078125	43.23488
0.5102539	35.757336
0.5126953	41.516407
0.5151367	46.669556
0.5175781	46.005
0.52001953	42.545208
0.52246094	39.506992
0.52490234	36.138187
0.52734375	31.131037
0.52978516	25.22974
0.53222656	18.229446
0.53466797	7.9501557
0.5371094	11.794542
0.5395508	31.866856
0.5419922	50.917183
0.5444336	62.823757
0.546875	63.862934
0.5493164	53.804134
0.5517578	36.70825
0.5541992	25.561125
0.5566406	36.385445
0.55908203	53.281727
0.56152344	66.411736
0.56396484	77.333885
0.56640625	89.02424
0.56884766	99.34421
0.57128906	103.55283
0.57373047	100.48799
0.5761719	94.36926
0.5786133	91.36709
0.5810547	93.778046
0.5834961	98.71599
0.5859375	103.20473
0.5883789	107.68492
0.5908203	113.57511
0.5932617	119.46146
0.5957031	123.22246
0.59814453	126.26859
0.60058594	131.03056
0.60302734	134.78003
0.60546875	131.11824
0.60791016	117.56202
0.61035156	100.71167
0.61279297	93.807655
0.6152344	100.01845
0.6176758	107.62345
0.6201172	111.06232
0.6225586	116.73476
0.625	128.24649
0.6274414	136.9941
0.6298828	133.50874
0.6323242	117.85132
0.6347656	100.83619
0.63720703	97.0149
0.63964844	106.18862
0.64208984	113.50353
0.64453125	109.40898
0.64697266	96.41143
0.64941406	86.38427
0.65185547	88.07948
0.6542969	94.45801
0.6567383	93.88722
0.6591797	81.40339
0.6616211	58.886913
0.6640625	33.573444
0.6665039	20.323374
0.6689453	27.478678
0.6713867	34.960457
0.6738281	38.602352
0.67626953	42.14518
0.67871094	47.52671
0.68115234	52.678303
0.68359375	54.716644
0.68603516	53.44936
0.68847656	52.375565
0.69091797	54.684258
0.6933594	58.355618
0.6958008	59.845642
0.6982422	59.566128
0.7006836	61.03397
0.703125	64.9679
0.7055664	66.83452
0.7080078	61.597794
0.7104492	47.896297
0.7128906	28.302488
0.71533203	8.025849
0.71777344	15.025447
0.72021484	30.241747
0.72265625	38.60083
0.72509766	38.03749
0.72753906	31.037497
0.72998047	29.596996
0.7324219	42.89433
0.7348633	60.019085
0.7373047	72.1989
0.7397461	75.85613
0.7421875	69.56072
0.7446289	54.271427
0.7470703	38.548355
0.7495117	41.635433
0.7519531	57.622833
0.75439453	67.61652
0.75683594	66.98724
0.75927734	59.883526
0.76171875	53.249016
0.76416016	50.751125
0.76660156	50.5526
0.76904297	49.450596
0.7714844	46.492104
0.7739258	43.480762
0.7763672	42.782455
0.7788086	43.433914
0.78125	41.93601
0.7836914	36.721077
0.7861328	29.68799
0.7885742	24.604948
0.7910156	23.606384
0.79345703	24.381504
0.79589844	22.897352
0.79833984	16.759954
0.80078125	8.4480505
0.80322266	16.830292
0.80566406	33.78106
0.80810547	48.46321
0.8105469	55.547173
0.8129883	51.86203
0.8154297	39.63909
0.8178711	31.368198
0.8203125	39.10003
0.8227539	50.835384
0.8251953	59.35579
0.8276367	65.430725
0.8300781	66.38313
0.83251953	56.606007
0.83496094	36.62931
0.83740234	28.217024
0.83984375	50.87822
0.84228516	73.94452
0.84472656	84.87292
0.84716797	81.61338
0.8496094	66.31801
0.8520508	43.53145
0.8544922	29.545784
0.8569336	51.520508
0.859375	82.58548
0.8618164	103.2247
0.8642578	105.6695
0.8666992	89.2399
0.8691406	62.438557
0.87158203	54.874336
0.87402344	85.66513
0.87646484	120.87407
0.87890625	139.84502
0.88134766	137.92976
0.88378906	124.25664
0.88623047	117.50678
0.8886719	128.3792
0.8911133	152.04518
0.8935547	184.86008
0.8959961	224.0295
0.8984375	259.96036
0.9008789	283.19257
0.9033203	296.10287
0.9057617	313.12692
0.9082031	342.91132
0.91064453	374.91876
0.91308594	393.06937
0.91552734	392.99103
0.91796875	382.1764
0.92041016	367.66898
0.92285156	347.69492
0.92529297	316.55258
0.9277344	272.38403
0.9301758	218.6766
0.9326172	162.87727
0.9350586	115.39591
0.9375	87.6027
0.9399414	87.82439
0.9423828	115.9984
0.9448242	163.81752
0.9472656	218.1285
0.94970703	262.74884
0.95214844	283.1581
0.95458984	274.5499
0.95703125	248.66183
0.95947266	230.39119
0.96191406	234.99521
0.96435547	251.1512
0.9667969	261.8115
0.9692383	261.72278
0.9716797	253.59056
0.9741211	239.06772
0.9765625	217.01472
0.9790039	191.30713
0.9814453	174.03749
0.9838867	170.23846
0.9863281	169.27007
0.98876953	165.46443
0.99121094	166.66046
0.99365234	175.37122
0.99609375	180.84666
0.99853516	176.65662
1.0009766	169.06584
1.003418	164.09494
1.0058594	154.05206
1.0083008	128.68805
1.0107422	95.905525
1.0131836	89.354126
1.015625	114.83034
1.0180664	136.34955
1.0205078	137.98196
1.0229492	120.95463
1.0253906	91.9839
1.027832	62.792694
1.0302734	62.321392
1.0327148	93.08952
1.0351562	120.77972
1.0375977	127.69941
1.0400391	110.3513
1.0424805	80.84354
1.0449219	77.89767
1.0473633	116.59665
1.0498047	157.90733
1.0522461	179.17772
1.0546875	174.97273
1.0571289	153.51646
1.0595703	133.25111
1.0620117	128.78386
1.0644531	135.49533
1.0668945	143.08957
1.0693359	149.96014
1.0717773	156.38884
1.0742188	156.96396
1.0766602	145.22136
1.0791016	123.43839
1.081543	108.78543
1.0839844	121.13248
1.0864258	152.15512
1.0888672	181.76187
1.0913086	198.82585
1.09375	199.82593
1.0961914	186.7864
1.0986328	166.13136
1.1010742	146.72296
1.1035156	137.61858
1.105957	143.49327
1.1083984	159.0758
1.1108398	173.34956
1.1132812	177.48103
1.1157227	167.55515
1.1181641	146.02318
1.1206055	124.50704
1.1230469	119.39843
1.1254883	130.35593
1.1279297	139.98323
1.1303711	137.55362
1.1328125	126.53201
1.1352539	121.85376
1.1376953	134.21121
1.1401367	154.85652
1.1425781	172.03578
1.1450195	185.42581
1.1474609	200.95514
1.1499023	218.44347
1.1523438	228.83
1.1547852	222.95357
1.1572266	199.8782
1.159668	170.34138
1.1621094	154.12447
1.1645508	161.62407
1.1669922	177.93968
1.1694336	183.45042
1.171875	170.52876
1.1743164	143.22519
1.1767578	111.87045
1.1791992	86.56065
1.1816406	72.519226
1.184082	69.55915
1.1865234	74.20662
1.1889648	82.33135
1.1914062	90.550156
1.1938477	95.215614
1.1962891	91.869446
1.1987305	78.099594
1.2011719	59.669025
1.2036133	55.952675
1.2060547	73.931915
1.2084961	96.1158
1.2109375	117.08785
1.2133789	139.99643
1.2158203	162.58897
1.2182617	177.50891
1.2207031	180.53455
1.2231445	171.54501
1.2255859	149.86777
1.2280273	115.17728
1.2304688	80.701584
1.2329102	91.96579
1.2353516	147.95642
1.237793	206.43529
1.2402344	247.96774
1.2426758	267.2363
1.2451172	269.75632
1.2475586	266.82278
1.25	267.381
1.2524414	273.28104
1.2548828	280.1034
1.2573242	281.41638
1.2597656	275.0623
1.262207	265.7661
1.2646484	258.86963
1.2670898	253.41089
1.2695312	246.0085
1.2719727	237.55988
1.2744141	231.29103
1.2768555	227.60378
1.2792969	225.13864
1.2817383	225.0577
1.2841797	231.08801
1.2866211	245.10468
1.2890625	263.72296
1.2915039	279.98605
1.2939453	288.894
1.2963867	293.74973
1.2988281	307.84564
1.3012695	342.62015
1.3037109	391.85846
1.3061523	436.2979
1.3085938	458.56796
1.3110352	451.00668
1.3134766	418.44522
1.315918	379.06192
1.3183594	357.7011
1.3208008	365.62292
1.3232422	390.11557
1.3256836	413.80173
1.328125	430.0049
1.3305664	439.07938
1.3330078	440.5765
1.3354492	433.8018
1.3378906	424.79398
1.340332	426.34845
1.3427734	444.29315
1.3452148	466.97354
1.3476562	474.66534
1.3500977	454.74228
1.3525391	408.9087
1.3549805	353.07837
1.3574219	309.38074
1.3598633	288.3798
1.3623047	278.9174
1.3647461	264.03262
1.3671875	236.39531
1.3696289	197.30229
1.3720703	153.55676
1.3745117	123.05553
1.3769531	131.13533
1.3793945	167.46535
1.3818359	202.5467
1.3842773	223.14201
1.3867188	229.52963
1.3891602	229.17978
1.3916016	231.97467
1.394043	243.70767
1.3964844	259.7238
1.3989258	267.9511
1.4013672	259.1559
1.4038086	234.21126
1.40625	205.0106
1.4086914	189.0577
1.4111328	197.55046
1.4135742	226.43254
1.4160156	262.60794
1.418457	294.08777
1.4208984	316.6498
1.4233398	334.67325
1.4257812	352.43393
1.4282227	366.87183
1.4306641	374.108
1.4331055	377.99277
1.4355469	386.1702
1.4379883	400.46036
1.4404297	415.948
1.4428711	426.06323
1.4453125	425.70627
1.4477539	414.7281
1.4501953	401.6026
1.4526367	398.1984
1.4550781	404.69128
1.4575195	407.37662
1.4599609	397.38486
1.4624023	382.69223
1.4648438	374.2257
1.4672852	363.36795
1.4697266	329.07855
1.472168	264.90417
1.4746094	196.54172
1.4770508	184.01404
1.4794922	241.22115
1.4819336	313.95547
1.484375	373.07385
1.4868164	414.7577
1.4892578	447.61972
1.4916992	480.313
1.4941406	509.59677
1.496582	524.24744
1.4990234	519.40826
1.5014648	501.14706
1.5039062	479.11914
1.5063477	461.96756
1.5087891	458.57828
1.5112305	471.17532
1.5136719	487.85858
1.5161133	493.85846
1.5185547	485.66632
1.5209961	469.43387
1.5234375	451.09253
1.5258789	430.79782
1.5283203	402.6013
1.5307617	357.99695
1.5332031	294.38074
1.5356445	222.21655
1.5380859	163.53133
1.5405273	139.68369
1.5429688	151.58992
1.5454102	184.70563
1.5478516	226.06265
1.550293	266.32556
1.5527344	303.45312
1.5551758	339.43176
1.5576172	370.44916
1.5600586	388.49106
1.5625	392.37436
1.5649414	390.65622
1.5673828	394.06192
1.5698242	406.5014
1.5722656	420.94113
1.574707	425.15915
1.5771484	414.28424
1.5795898	394.65137
1.5820312	374.08627
1.5844727	355.4594
1.5869141	342.3392
1.5893555	339.68552
1.5917969	347.13974
1.5942383	361.6499
1.5966797	380.09625
1.5991211	392.33133
1.6015625	384.13202
1.6040039	353.31308
1.6064453	316.36502
1.6088867	290.87604
1.6113281	274.06827
1.6137695	256.74655
1.6162109	246.0196
1.6186523	252.78818
1.6210938	268.69067
1.6235352	275.4344
1.6259766	262.24222
1.628418	229.28091
1.6308594	186.09691
1.6333008	149.70103
1.6357422	139.37334
1.6381836	160.2427
1.640625	201.02725
1.6430664	253.28394
1.6455078	312.47223
1.6479492	371.06332
1.6503906	419.1236
1.652832	450.45514
1.6552734	466.2764
1.6577148	472.57687
1.6601562	475.1377
1.6625977	478.46072
1.6650391	486.77463
1.6674805	500.42883
1.6699219	512.53705
1.6723633	515.3649
1.6748047	510.03052
1.6772461	508.05704
1.6796875	523.2276
1.6821289	559.4647
1.6845703	603.9627
1.6870117	632.5865
1.6894531	623.81683
1.6918945	571.9743
1.6943359	493.33975
1.6967773	420.6505
1.6992188	380.96063
1.7016602	370.2356
1.7041016	364.49606
1.706543	348.80704
1.7089844	323.70877
1.7114258	300.1894
1.7138672	292.21194
1.7163086	304.08722
1.71875	326.77832
1.7211914	348.6133
1.7236328	361.0284
1.7260742	357.61246
1.7285156	335.2742
1.730957	296.2601
1.7333984	246.9568
1.7358398	194.98515
1.7382812	147.70097
1.7407227	112.39291
1.7431641	95.38301
1.7456055	97.20165
1.7480469	112.65638
1.7504883	137.25304
1.7529297	167.10776
1.7553711	200.01353
1.7578125	237.71133
1.7602539	281.65933
1.7626953	328.6648
1.7651367	374.23596
1.7675781	416.65335
1.7700195	456.33102
1.7724609	494.65228
1.7749023	533.0363
1.7773438	569.6232
1.7797852	597.9624
1.7822266	611.71747
1.784668	609.2567
1.7871094	592.942
1.7895508	566.2888
1.7919922	531.1954
1.7944336	483.70227
1.796875	414.30966
1.7993164	320.7575
1.8017578	228.58418
1.8041992	201.30684
1.8066406	251.50378
1.809082	312.4514
1.8115234	352.52267
1.8139648	370.7865
1.8164062	378.7354
1.8188477	391.82254
1.8212891	415.59454
1.8237305	439.50912
1.8261719	451.0121
1.8286133	450.19794
1.8310547	451.62338
1.8334961	473.92938
1.8359375	521.1341
1.8383789	576.27686
1.8408203	616.5494
1.8432617	628.0873
1.8457031	610.0603
1.8481445	573.05585
1.8505859	533.9399
1.8530273	505.3676
1.8554688	487.7034
1.8579102	475.65262
1.8603516	468.7378
1.862793	468.18637
1.8652344	469.17343
1.8676758	465.02036
1.8701172	457.28427
1.8725586	455.8401
1.875	466.10574
1.8774414	480.0016
1.8798828	484.7918
1.8823242	476.03833
1.8847656	458.06662
1.887207	434.65976
1.8896484	404.68356
1.8920898	369.2241
1.8945312	338.6998
1.8969727	324.86752
1.8994141	322.74988
1.9018555	312.79846
1.9042969	282.73627
1.9067383	239.33557
1.9091797	203.28955
1.9116211	192.27664
1.9140625	206.93748
1.9165039	237.59534
1.9189453	272.4485
1.9213867	300.32907
1.9238281	315.88535
1.9262695	321.21762
1.9287109	321.77307
1.9311523	321.42105
1.9335938	320.65765
1.9360352	318.01138
1.9384766	313.08374
1.940918	308.1733
1.9433594	306.36398
1.9458008	308.77206
1.9482422	314.58652
1.9506836	322.03262
1.953125	328.443
1.9555664	332.03174
1.9580078	333.84088
1.9604492	334.18896
1.9628906	327.59583
1.965332	307.1468
1.9677734	275.06094
1.9702148	245.97946
1.9726562	235.81667
1.9750977	245.90909
1.9775391	267.03146
1.9799805	293.20294
1.9824219	321.90076
1.9848633	349.66403
1.9873047	373.78223
1.9897461	395.28992
1.9921875	415.50464
1.9946289	430.73877
1.9970703	434.8863
1.9995117	426.78073
2.0019531	412.70523
2.0043945	403.13327
2.006836	407.58044
2.0092773	428.43936
2.0117188	457.471
2.0141602	481.8476
2.0166016	494.5894
2.019043	498.77353
2.0214844	503.03238
2.0239258	514.24713
2.0263672	534.71313
2.0288086	562.36536
2.03125	590.27655
2.0336914	608.66016
2.0361328	610.84106
2.0385742	596.97266
2.0410156	572.504
2.043457	545.55927
2.0458984	524.4503
2.0483398	511.32074
2.0507812	496.97504
2.0532227	467.6397
2.055664	416.87537
2.0581055	349.40668
2.0605469	277.3861
2.0629883	216.05223
2.0654297	177.61862
2.067871	157.98486
2.0703125	138.06401
2.072754	107.53831
2.0751953	81.42857
2.0776367	96.75799
2.0800781	144.63383
2.0825195	194.6396
2.084961	231.44695
2.0874023	246.26308
2.0898438	237.12944
2.0922852	213.14711
2.0947266	194.76227
2.097168	201.01015
2.0996094	230.34602
2.1020508	267.4738
2.1044922	297.81656
2.1069336	309.8397
2.109375	298.16797
2.1118164	269.67334
2.1142578	245.42892
2.1166992	247.28319
2.1191406	271.98303
2.121582	295.95926
2.1240234	300.18875
2.1264648	278.92752
2.1289062	239.39458
2.1313477	198.15102
2.133789	170.92499
2.1362305	158.8637
2.1386719	152.26308
2.1411133	146.9826
2.1435547	144.64597
2.145996	143.8196
2.1484375	141.04448
2.150879	137.07936
2.1533203	135.4326
2.1557617	136.36299
2.1582031	137.29646
2.1606445	136.78856
2.163086	133.88919
2.1655273	126.45725
2.1679688	112.97948
2.1704102	94.47053
2.1728516	73.0513
2.175293	49.320667
2.1777344	23.148022
2.1801758	19.869688
2.1826172	53.15344
2.1850586	86.32013
2.1875	109.93636
2.1899414	118.56486
2.1923828	111.04562
2.1948242	90.553986
2.1972656	64.01396
2.199707	43.675064
2.2021484	45.093678
2.2045898	60.276077
2.2070312	74.46163
2.2094727	83.34876
2.211914	85.46644
2.2143555	78.95227
2.2167969	64.518875
2.2192383	56.309692
2.2216797	77.72191
2.224121	116.43245
2.2265625	152.27959
2.229004	176.20023
2.2314453	186.01291
2.2338867	182.49791
2.2363281	166.79532
2.2387695	140.78986
2.241211	109.7247
2.2436523	85.71646
2.2460938	85.84259
2.2485352	108.73712
2.2509766	136.9066
2.253418	158.558
2.2558594	168.77238
2.2583008	170.61429
2.2607422	177.32747
2.2631836	202.41397
2.265625	241.35883
2.2680664	277.058
2.2705078	297.29376
2.2729492	302.9681
2.2753906	309.09262
2.277832	335.1559
2.2802734	383.6864
2.2827148	435.37637
2.2851562	467.5933
2.2875977	468.23404
2.290039	439.0419
2.2924805	397.25854
2.2949219	375.733
2.2973633	399.03705
2.2998047	448.6392
2.302246	485.96573
2.3046875	489.766
2.307129	461.76657
2.3095703	418.40176
2.3120117	382.84528
2.3144531	374.17755
2.3168945	387.82193
2.319336	395.49353
2.3217773	372.2783
2.3242188	317.29803
2.3266602	261.33127
2.3291016	254.63803
2.331543	302.57706
2.3339844	359.52972
2.3364258	392.16254
2.3388672	388.43185
2.3413086	352.89542
2.34375	307.55307
2.3461914	286.62253
2.3486328	306.944
2.3510742	347.78738
2.3535156	380.1846
2.355957	386.71536
2.3583984	362.08908
2.3608398	315.0037
2.3632812	271.7429
2.3657227	265.868
2.368164	298.6423
2.3706055	336.523
2.3730469	351.86365
2.3754883	336.6566
2.3779297	302.4775
2.380371	277.94684
2.3828125	289.45044
2.385254	329.3573
2.3876953	367.72375
2.3901367	381.24854
2.3925781	359.8542
2.3950195	305.31055
2.397461	228.9582
2.3999023	148.3919
2.4023438	84.888435
2.4047852	59.894306
2.4072266	58.49637
2.409668	44.462025
2.4121094	14.435917
2.4145508	48.689323
2.4169922	101.22484
2.4194336	139.99884
2.421875	152.42242
2.4243164	133.90488
2.4267578	89.384834
2.4291992	38.935486
2.4316406	55.68575
2.434082	100.63216
2.4365234	126.94015
2.4389648	131.98955
2.4414062	128.92221
2.4438477	138.81917
2.446289	164.42352
2.4487305	185.91638
2.4511719	186.80185
2.4536133	167.2438
2.4560547	146.01442
2.458496	146.23752
2.4609375	162.62749
2.463379	171.7196
2.4658203	162.61008
2.4682617	141.9738
2.4707031	129.15613
2.4731445	137.19533
2.475586	155.27829
2.4780273	170.17612
2.4804688	182.04887
2.4829102	197.32231
2.4853516	217.53429
2.487793	238.22197
2.4902344	253.07982
2.4926758	254.85226
2.4951172	238.88889
2.4975586	213.31157
2.5	203.92253
2.5024414	226.72295
2.5048828	261.69937
2.5073242	286.08185
2.5097656	296.38867
2.512207	300.69507
2.5146484	306.0977
2.5170898	314.60968
2.5195312	324.56558
2.5219727	330.2993
2.524414	325.03503
2.5268555	308.83118
2.5292969	292.00693
2.5317383	286.32123
2.5341797	291.89603
2.536621	299.1883
2.5390625	301.6273
2.541504	301.46014
2.5439453	306.36368
2.5463867	319.91953
2.5488281	335.31494
2.5512695	342.43243
2.553711	339.21368
2.5561523	332.74313
2.5585938	329.0877
2.5610352	326.3855
2.5634766	321.93484
2.565918	319.7534
2.5683594	325.17374
2.5708008	335.47504
2.5732422	341.89505
2.5756836	338.47595
2.578125	326.56973
2.5805664	313.546
2.5830078	306.65024
2.5854492	306.18832
2.5878906	307.0223
2.590332	305.52725
2.5927734	300.14468
2.5952148	287.3646
2.5976562	265.036
2.6000977	241.85919
2.602539	235.62401
2.6049805	249.24277
2.6074219	262.01718
2.6098633	254.08076
2.6123047	222.12979
2.614746	182.12033
2.6171875	166.89516
2.619629	192.19066
2.6220703	229.10252
2.6245117	247.8229
2.6269531	237.0815
2.6293945	200.6411
2.631836	153.27957
2.6342773	119.27805
2.6367188	121.30501
2.6391602	147.33984
2.6416016	171.25278
2.644043	180.21187
2.6464844	171.52322
2.6489258	148.29482
2.6513672	116.6731
2.6538086	83.67416
2.65625	55.406067
2.6586914	35.78525
2.6611328	27.786541
2.6635742	34.674606
2.6660156	51.559937
2.668457	70.07352
2.6708984	83.334175
2.6733398	86.61414
2.6757812	78.61128
2.6782227	61.651432
2.680664	40.4794
2.6831055	23.221643
2.6855469	29.302034
2.6879883	53.638245
2.6904297	82.789154
2.692871	111.76861
2.6953125	135.8838
2.697754	151.2089
2.7001953	156.35454
2.7026367	152.73749
2.7050781	142.83305
2.7075195	129.94012
2.709961	123.77038
2.7124023	140.53508
2.7148438	179.35326
2.7172852	219.41829
2.7197266	242.4676
2.722168	242.7321
2.7246094	228.00587
2.7270508	214.75763
2.7294922	217.2299
2.7319336	236.33813
2.734375	260.28693
2.7368164	274.12238
2.7392578	269.08038
2.7416992	249.58965
2.7441406	232.69765
2.746582	232.45505
2.7490234	242.96445
2.7514648	248.66217
2.7539062	241.41428
2.7563477	223.47072
2.758789	206.27138
2.7612305	206.9325
2.7636719	231.15477
2.7661133	262.7674
2.7685547	282.00748
2.770996	282.9744
2.7734375	277.99582
2.775879	285.74365
2.7783203	306.78537
2.7807617	323.46603
2.7832031	324.85324
2.7856445	317.96622
2.788086	317.4471
2.7905273	328.54205
2.7929688	346.17004
2.7954102	365.70782
2.7978516	384.41898
2.800293	397.98523
2.8027344	403.7854
2.8051758	406.19693
2.8076172	414.37994
2.8100586	433.29236
2.8125	458.69336
2.8149414	481.10837
2.8173828	492.1646
2.8198242	489.0639
2.8222656	477.81506
2.824707	472.6628
2.8271484	485.78073
2.8295898	512.76404
2.8320312	534.09015
2.8344727	532.02716
2.836914	504.25174
2.8393555	466.75034
2.8417969	445.00598
2.8442383	454.21503
2.8466797	486.47693
2.849121	521.4774
2.8515625	541.1655
2.854004	535.22833
2.8564453	503.45145
2.8588867	458.03946
2.8613281	422.77957
2.8637695	419.92017
2.866211	446.27603
2.8686523	474.05054
2.8710938	477.34988
2.8735352	449.42352
2.8759766	406.8537
2.878418	383.5841
2.8808594	404.20023
2.8833008	455.6778
2.8857422	505.55652
2.8881836	530.0324
2.890625	521.497
2.8930664	488.6984
2.8955078	454.15512
2.8979492	443.8252
2.9003906	467.2276
2.902832	508.3783
2.9052734	539.9735
2.9077148	539.3191
2.9101562	498.34552
2.9125977	434.14032
2.915039	395.4583
2.9174805	426.15414
2.9199219	498.78186
2.9223633	554.5793
2.9248047	561.75916
2.927246	523.5244
2.9296875	473.97388
2.932129	461.6912
2.9345703	502.77222
2.9370117	561.33905
2.9394531	595.628
2.9418945	588.1467
2.944336	547.40967
2.9467773	501.9274
2.9492188	486.70453
2.9516602	516.0894
2.9541016	569.2088
2.956543	612.1331
2.9589844	621.9929
2.9614258	597.13477
2.9638672	559.90515
2.9663086	546.5948
2.96875	576.0381
2.9711914	630.095
2.9736328	677.7605
2.9760742	699.42053
2.9785156	690.4691
2.980957	660.2669
2.9833984	631.1465
2.9858398	626.73566
2.9882812	649.5246
2.9907227	677.4658
2.993164	686.55347
2.9956055	669.0986
2.9980469	637.5242
3.0004883	616.3608
3.0029297	621.33386
3.005371	642.6403
3.0078125	656.7611
3.010254	648.1003
3.0126953	616.2535
3.0151367	574.4115
3.0175781	545.79553
3.0200195	548.8649
3.022461	574.93774
3.0249023	594.5573
3.0273438	586.90497
3.0297852	555.26904
3.0322266	522.2608
3.034668	510.49106
3.0371094	520.6975
3.0395508	532.6481
3.0419922	527.12274
3.0444336	501.53665
3.046875	469.69742
3.0493164	448.1143
3.0517578	439.31723
3.0541992	431.86108
3.0566406	415.30408
3.059082	389.2272
3.0615234	360.73425
3.0639648	336.4826
3.0664062	316.69855
3.0688477	297.0951
3.071289	276.19528
3.0737305	259.6833
3.0761719	255.84775
3.0786133	264.1179
3.0810547	272.6005
3.083496	269.44894
3.0859375	252.39017
3.088379	229.31741
3.0908203	211.56322
3.0932617	204.05376
3.0957031	202.62706
3.0981445	201.32965
3.100586	197.4591
3.1030273	190.26088
3.1054688	179.64893
3.1079102	168.3412
3.1103516	162.86627
3.112793	166.69678
3.1152344	172.48828
3.1176758	168.67229
3.1201172	152.45967
3.1225586	138.42639
3.125	150.82874
3.1274414	187.91916
3.1298828	226.21886
3.1323242	250.56023
3.1347656	258.03256
3.137207	253.58167
3.1396484	247.48396
3.1420898	252.79636
3.1445312	273.9302
3.1469727	297.4336
3.149414	303.95474
3.1518555	285.28043
3.1542969	250.99316
3.1567383	223.27632
3.1591797	216.34705
3.161621	218.10345
3.1640625	206.99684
3.166504	174.77695
3.1689453	134.8986
3.1713867	125.67709
3.1738281	161.94507
3.1762695	205.58025
3.178711	229.22025
3.1811523	226.31203
3.1835938	207.09581
3.1860352	194.59108
3.1884766	205.46037
3.190918	231.07167
3.1933594	255.5147
3.1958008	272.5514
3.1982422	281.05704
3.2006836	278.81116
3.203125	265.43915
3.2055664	248.72449
3.2080078	241.956
3.2104492	248.66798
3.2128906	255.9148
3.215332	248.40375
3.2177734	221.38365
3.2202148	184.51076
3.2226562	161.29532
3.2250977	171.53648
3.227539	202.46533
3.2299805	229.27455
3.2324219	238.87144
3.2348633	229.83757
3.2373047	209.80408
3.239746	193.48912
3.2421875	195.10974
3.244629	213.8914
3.2470703	234.645
3.2495117	242.3931
3.2519531	229.71606
3.2543945	198.26746
3.256836	160.03476
3.2592773	136.63304
3.2617188	140.83794
3.2641602	155.69304
3.2666016	160.87018
3.269043	151.88095
3.2714844	136.7276
3.2739258	127.47499
3.2763672	130.08086
3.2788086	140.46916
3.28125	150.0476
3.2836914	150.45677
3.2861328	136.35909
3.2885742	109.19128
3.2910156	83.15093
3.293457	86.54679
3.2958984	116.80626
3.2983398	143.42996
3.3007812	148.72572
3.3032227	129.31218
3.305664	102.09599
3.3081055	112.38694
3.3105469	165.37546
3.3129883	219.61618
3.3154297	250.52022
3.317871	250.17706
3.3203125	226.64783
3.322754	206.55501
3.3251953	219.90076
3.3276367	259.70334
3.3300781	294.03848
3.3325195	302.20743
3.334961	280.487
3.3374023	238.14954
3.3398438	196.18044
3.3422852	185.86584
3.3447266	218.26112
3.347168	264.5136
3.3496094	294.60025
3.3520508	294.80704
3.3544922	268.25357
3.3569336	235.03738
3.359375	225.23947
3.3618164	248.44487
3.3642578	280.01328
3.3666992	293.43768
3.3691406	278.06833
3.371582	239.7046
3.3740234	199.92372
3.3764648	190.02843
3.3789062	218.33621
3.3813477	257.8506
3.383789	282.09302
3.3862305	277.91858
3.3886719	245.59048
3.3911133	202.61589
3.3935547	185.67317
3.395996	214.3562
3.3984375	258.15994
3.400879	285.85782
3.4033203	287.24408
3.4057617	266.69415
3.4082031	236.63472
3.4106445	213.65965
3.413086	211.44981
3.4155273	226.95659
3.4179688	241.80095
3.4204102	239.73323
3.4228516	217.11432
3.425293	185.91
3.4277344	170.18456
3.4301758	182.69768
3.4326172	206.24991
3.4350586	219.51479
3.4375	214.13255
3.4399414	192.86
3.4423828	166.15631
3.4448242	149.73
3.4472656	154.76758
3.449707	173.39049
3.4521484	187.41573
3.4545898	184.61385
3.4570312	164.30803
3.4594727	139.45462
3.461914	133.14632
3.4643555	152.98286
3.4667969	179.90645
3.4692383	196.42801
3.4716797	196.87292
3.474121	185.54944
3.4765625	174.73468
3.479004	178.06726
3.4814453	197.1403
3.4838867	219.86948
3.4863281	232.74995
3.4887695	228.55144
3.491211	209.30782
3.4936523	188.0857
3.4960938	183.91692
3.4985352	201.99115
3.5009766	226.57933
3.503418	240.2867
3.5058594	234.6619
3.5083008	211.32747
3.5107422	184.05212
3.5131836	177.80664
3.515625	203.7522
3.5180664	241.15291
3.5205078	265.8071
3.5229492	266.8683
3.5253906	246.72874
3.527832	218.08626
3.5302734	198.61284
3.5327148	199.08296
3.5351562	212.69093
3.5375977	223.33105
3.540039	218.51752
3.5424805	193.59526
3.5449219	152.8766
3.5473633	112.59338
3.5498047	102.25163
3.552246	125.51248
3.5546875	148.85156
3.557129	151.09763
3.5595703	127.99635
3.5620117	90.76031
3.5644531	75.8192
3.5668945	107.26777
3.569336	145.25658
3.5717773	164.28113
3.5742188	156.98535
3.5766602	126.73274
3.5791016	91.981964
3.581543	96.08058
3.5839844	142.67892
3.5864258	190.53828
3.5888672	217.87778
3.5913086	216.96364
3.59375	190.16563
3.5961914	150.9614
3.5986328	127.32378
3.6010742	143.81505
3.6035156	181.55327
3.605957	211.65033
3.6083984	220.198
3.6108398	204.26688
3.6132812	169.13757
3.6157227	129.54152
3.618164	113.78188
3.6206055	137.73953
3.6230469	174.43636
3.6254883	197.79167
3.6279297	196.85265
3.630371	171.38611
3.6328125	130.44006
3.635254	96.317535
3.6376953	102.59798
3.6401367	139.00516
3.6425781	170.92784
3.6450195	181.40605
3.647461	165.90305
3.6499023	130.11894
3.6523438	93.50236
3.6547852	90.923706
3.6572266	120.39108
3.659668	146.34796
3.6621094	152.50789
3.6645508	137.63562
3.6669922	111.03761
3.6694336	92.81956
3.671875	101.6542
3.6743164	126.12768
3.6767578	145.83298
3.6791992	151.31749
3.6816406	142.15681
3.684082	125.38655
3.6865234	114.18269
3.6889648	119.32729
3.6914062	136.56914
3.6938477	153.30739
3.696289	160.47108
3.6987305	155.22813
3.7011719	141.72481
3.7036133	131.06998
3.7060547	134.61229
3.708496	150.7467
3.7109375	167.06648
3.713379	172.9911
3.7158203	164.79091
3.7182617	146.35098
3.7207031	128.14745
3.7231445	120.95882
3.725586	124.83385
3.7280273	130.91174
3.7304688	133.5971
3.7329102	133.70274
3.7353516	134.36855
3.737793	136.63432
3.7402344	139.0675
3.7426758	140.98523
3.7451172	144.48065
3.7475586	152.17258
3.75	162.8796
3.7524414	171.13693
3.7548828	171.30647
3.7573242	162.10745
3.7597656	149.23106
3.762207	143.56955
3.7646484	151.18637
3.7670898	165.59677
3.7695312	176.25452
3.7719727	177.62796
3.774414	170.07857
3.7768555	157.82115
3.7792969	147.0921
3.7817383	143.58147
3.7841797	148.21758
3.786621	156.08347
3.7890625	160.64651
3.791504	157.62737
3.7939453	146.87646
3.7963867	134.25502
3.7988281	130.7786
3.8012695	141.81668
3.803711	158.87198
3.8061523	170.13588
3.8085938	169.6996
3.8110352	157.97691
3.8134766	140.71466
3.815918	129.00894
3.8183594	133.13617
3.8208008	148.97414
3.8232422	162.06741
3.8256836	161.94925
3.828125	146.62862
3.8305664	121.95755
3.8330078	100.49559
3.8354492	95.78081
3.8378906	106.00024
3.840332	116.56285
3.8427734	117.87725
3.8452148	108.57344
3.8476562	93.44479
3.8500977	81.872765
3.852539	82.8899
3.8549805	94.576035
3.8574219	106.5522
3.8598633	110.61505
3.8623047	103.84936
3.864746	89.28698
3.8671875	76.85923
3.869629	78.433586
3.8720703	91.367584
3.8745117	102.30666
3.8769531	102.79939
3.8793945	91.87165
3.881836	74.87287
3.8842773	62.418056
3.8867188	63.8688
3.8891602	74.58799
3.8916016	83.98105
3.894043	86.5873
3.8964844	81.93431
3.8989258	72.84053
3.9013672	63.638496
3.9038086	57.91263
3.90625	56.602547
3.9086914	57.984024
3.9111328	59.11512
3.9135742	57.379707
3.9160156	51.88699
3.918457	44.342884
3.9208984	38.69788
3.9233398	38.280106
3.9257812	41.688713
3.9282227	44.443214
3.930664	42.92065
3.9331055	35.80859
3.9355469	25.474539
3.9379883	21.179567
3.9404297	29.44296
3.942871	39.86223
3.9453125	45.67329
3.947754	45.00337
3.9501953	38.335335
3.9526367	28.719494
3.9550781	23.932898
3.9575195	29.865494
3.959961	38.428864
3.9624023	42.440376
3.9648438	39.91671
3.9672852	32.174717
3.9697266	23.215242
3.972168	19.748974
3.9746094	23.827574
3.9770508	28.578209
3.9794922	29.55499
3.9819336	26.067842
3.984375	20.156412
3.9868164	16.35473
3.9892578	17.746925
3.9916992	20.58482
3.9941406	21.12657
3.996582	18.700945
3.9990234	14.865682
4.001465	13.376297
4.0039062	16.71413
4.0063477	21.807962
4.008789	25.580875
4.0112305	26.803185
4.013672	25.663961
4.0161133	23.957552
4.0185547	24.664349
4.020996	28.62431
4.0234375	33.052708
4.025879	35.055992
4.0283203	33.809578
4.0307617	30.687416
4.033203	28.319761
4.0356445	28.624628
4.038086	31.272692
4.0405273	34.49149
4.0429688	36.296085
4.04541	35.124245
4.0478516	30.706236
4.050293	25.213522
4.0527344	23.66254
4.055176	28.321808
4.057617	34.56893
4.0600586	37.926132
4.0625	36.516075
4.0649414	30.735003
4.067383	23.58999
4.069824	21.200607
4.0722656	26.040842
4.074707	32.208485
4.0771484	35.12758
4.07959	33.331207
4.0820312	27.472792
4.0844727	20.388584
4.086914	17.625671
4.0893555	21.478449
4.091797	26.373081
4.0942383	28.282692
4.0966797	26.172998
4.099121	20.848787
4.1015625	14.990228
4.104004	13.788907
4.1064453	18.21976
4.1088867	22.79573
4.111328	24.288605
4.1137695	21.823086
4.116211	16.267582
4.1186523	11.006545
4.1210938	12.251184
4.123535	17.598175
4.1259766	21.363087
4.128418	21.684248
4.1308594	18.699993
4.133301	14.200153
4.135742	11.985739
4.1381836	14.406612
4.140625	18.012825
4.1430664	19.866087
4.145508	19.253054
4.147949	16.808184
4.1503906	14.075223
4.152832	12.913958
4.1552734	13.863907
4.157715	15.61926
4.1601562	16.876057
4.1625977	17.056778
4.165039	16.084866
4.1674805	14.25306
4.169922	12.257364
4.1723633	11.085476
4.1748047	11.264633
4.177246	12.192412
4.1796875	12.881972
4.182129	12.728259
4.1845703	11.609528
4.1870117	9.9309435
4.189453	8.705042
4.1918945	8.885552
4.194336	9.9705305
4.1967773	10.716518
4.1992188	10.496727
4.20166	9.440503
4.2041016	8.167135
4.206543	7.3882875
4.2089844	7.3415914
4.211426	7.6265306
4.213867	7.767551
4.2163086	7.5848136
4.21875	7.1375055
4.2211914	6.554106
4.223633	5.932664
4.226074	5.351076
4.2285156	4.88586
4.230957	4.573398
4.2333984	4.38931
4.23584	4.2824965
4.2382812	4.1835012
4.2407227	3.9998765
4.243164	3.6704304
4.2456055	3.2333906
4.248047	2.8385162
4.2504883	2.6657617
4.2529297	2.7427585
4.255371	2.8789372
4.2578125	2.8447053
4.260254	2.5304573
4.2626953	2.0089095
4.2651367	1.5787157
4.267578	1.62551
4.2700195	2.0115752
4.272461	2.3299866
4.2749023	2.3810434
4.2773438	2.1261714
4.279785	1.647195
4.2822266	1.1891278
4.284668	1.1647627
4.2871094	1.521067
4.289551	1.8358859
4.291992	1.9248275
4.2944336	1.7779149
4.296875	1.4913096
4.2993164	1.2437598
4.301758	1.2086319
4.304199	1.3501772
4.3066406	1.4975066
4.309082	1.5506669
4.3115234	1.4882828
4.313965	1.3286386
4.3164062	1.116078
4.3188477	0.9210258
4.321289	0.81744564
4.3237305	0.819556
4.326172	0.86926305
4.3286133	0.90470356
4.3310547	0.88917387
4.333496	0.8089793
4.3359375	0.68046784
4.338379	0.5590576
4.3408203	0.5210877
4.3432617	0.5778896
4.345703	0.65900284
4.3481445	0.70454615
4.350586	0.6921617
4.3530273	0.6302198
4.3554688	0.55198205
4.35791	0.5040328
4.3603516	0.5136554
4.362793	0.5589393
4.3652344	0.5951167
4.367676	0.5906549
4.370117	0.53875864
4.3725586	0.45796165
4.375	0.389027
4.3774414	0.3747741
4.379883	0.4109003
4.382324	0.44968292
4.3847656	0.452334
4.387207	0.40558633
4.3896484	0.3204809
4.39209	0.23265086
4.3945312	0.19605742
4.3969727	0.21970855
4.399414	0.2468483
4.4018555	0.24353519
4.404297	0.20697987
4.4067383	0.1520938
4.4091797	0.10780115
4.411621	0.10625403
4.4140625	0.13137221
4.416504	0.15035157
4.4189453	0.15208259
4.4213867	0.13544826
4.423828	0.10306729
4.4262695	0.060308848
4.428711	0.016356152
4.4311523	0.026303321
4.4335938	0.05222182
4.436035	0.062824085
4.4384766	0.058915764
4.440918	0.04492523
4.4433594	0.02952613
4.445801	0.027013842
4.448242	0.035294376
4.4506836	0.03919416
4.453125	0.03460716
4.4555664	0.024204932
4.458008	0.016379122
4.460449	0.019597087
4.4628906	0.025562685
4.465332	0.027698481
4.4677734	0.026147507
4.470215	0.024338119
4.4726562	0.025542798
4.4750977	0.028542684
4.477539	0.029354164
4.4799805	0.025651226
4.482422	0.017670492
4.4848633	0.011048405
4.4873047	0.01743622
4.489746	0.027830852
4.4921875	0.034264024
4.494629	0.03412614
4.4970703	0.027778236
4.4995117	0.019939018
4.501953	0.021117128
4.5043945	0.030448226
4.506836	0.03749014
4.5092773	0.037190124
4.5117188	0.028752772
4.51416	0.014279631
4.5166016	0.009602662
4.519043	0.024521803
4.5214844	0.036093064
4.523926	0.040472213
4.526367	0.03728405
4.5288086	0.02808333
4.53125	0.016866175
4.5336914	0.013203532
4.536133	0.02135425
4.538574	0.029990086
4.5410156	0.035093475
4.543457	0.03588583
4.5458984	0.032319408
4.54834	0.02530616
4.5507812	0.016472114
4.5532227	0.010947244
4.555664	0.015598834
4.5581055	0.023196554
4.560547	0.028210653
4.5629883	0.029067505
4.5654297	0.02547839
4.567871	0.01814812
4.5703125	0.009514036
4.572754	0.00798736
4.5751953	0.014890902
4.5776367	0.020320162
4.580078	0.022078956
4.5825195	0.01993332
4.584961	0.014595523
4.5874023	0.007973917
4.5898438	0.0056183184
4.592285	0.010195923
4.5947266	0.013926648
4.597168	0.014977642
4.5996094	0.013463005
4.602051	0.010275468
4.604492	0.0069276257
4.6069336	0.005702271
4.609375	0.007003195
4.6118164	0.008457735
4.614258	0.008934725
4.616699	0.00865103
4.6191406	0.007675109
4.621582	0.0062514744
4.6240234	0.0046923086
4.626465	0.003858932
4.6289062	0.0047052642
4.6313477	0.006405282
4.633789	0.0079086125
4.6362305	0.008367606
4.638672	0.0075722523
4.6411133	0.0055345558
4.6435547	0.0030516663
4.645996	0.0031833579
4.6484375	0.0056104762
4.650879	0.0074720746
4.6533203	0.008041675
4.6557617	0.0071878703
4.658203	0.0051014083
4.6606445	0.0024898173
4.663086	0.002231468
4.6655273	0.0045183687
4.6679688	0.006198715
4.67041	0.006703887
4.6728516	0.0060774544
4.675293	0.0043570204
4.6777344	0.0021576511
4.680176	0.0011468442
4.682617	0.0030557783
4.6850586	0.0047312453
4.6875	0.005626255
4.6899414	0.0055998666
4.692383	0.004609453
4.694824	0.0029693253
4.6972656	9.0872974E-4
4.699707	0.001482881
4.7021484	0.00336708
4.70459	0.004654672
4.7070312	0.0050180494
4.7094727	0.0045981966
4.711914	0.0032506548
4.7143555	0.0013352286
4.716797	7.7418244E-4
4.7192383	0.0028129236
4.7216797	0.004273636
4.724121	0.0049109682
4.7265625	0.004673464
4.729004	0.0035610783
4.7314453	0.0018211317
4.7338867	7.346695E-4
4.736328	0.0024155993
4.7387695	0.003868479
4.741211	0.00462875
4.7436523	0.004463914
4.7460938	0.00351838
4.748535	0.002037974
4.7509766	7.398263E-4
4.753418	0.0018872565
4.7558594	0.0032465542
4.758301	0.0040549864
4.760742	0.0041011996
4.7631836	0.0035085322
4.765625	0.0023744265
4.7680664	9.852463E-4
4.770508	0.0011046225
4.772949	0.00232557
4.7753906	0.0031828373
4.777832	0.0034585737
4.7802734	0.0031638332
4.782715	0.0023438889
4.7851562	0.001430063
4.7875977	0.0011702299
4.790039	0.0019825778
4.7924805	0.0026950538
4.794922	0.0030035886
4.7973633	0.00286571
4.7998047	0.0022980063
4.802246	0.001621571
4.8046875	0.0013040103
4.807129	0.0017057187
4.8095703	0.0023074893
4.8120117	0.002624837
4.814453	0.0025722692
4.8168945	0.002173979
4.819336	0.0016061194
4.8217773	0.0012072108
4.8242188	0.0014617908
4.82666	0.0019714087
4.8291016	0.002258242
4.831543	0.0022954831
4.8339844	0.0019941435
4.836426	0.0014387706
4.838867	9.576808E-4
4.8413086	9.4952417E-4
4.84375	0.0013775709
4.8461914	0.0016683827
4.848633	0.0017613709
4.851074	0.0015395934
4.8535156	0.0011557211
4.855957	7.068267E-4
4.8583984	5.9913995E-4
4.86084	8.158175E-4
4.8632812	0.0010739695
4.8657227	0.001257733
4.868164	0.001129857
4.8706055	8.9136185E-4
4.873047	6.026755E-4
4.8754883	3.276437E-4
4.8779297	4.5338075E-4
4.880371	7.8479265E-4
4.8828125	9.181027E-4
4.885254	9.5613766E-4
4.8876953	8.787462E-4
4.8901367	5.867485E-4
4.892578	3.5029164E-4
4.8950195	3.115926E-4
4.897461	4.819056E-4
4.8999023	6.628716E-4
4.9023438	7.45905E-4
4.904785	6.9100724E-4
4.9072266	4.6006418E-4
4.909668	2.8091206E-4
4.9121094	2.2903542E-4
4.914551	3.542217E-4
4.916992	4.4998305E-4
4.9194336	5.267373E-4
4.921875	4.902358E-4
4.9243164	3.8950553E-4
4.926758	2.4783975E-4
4.929199	7.7175064E-5
4.9316406	1.3755898E-4
4.934082	2.5147718E-4
4.9365234	2.9902466E-4
4.938965	3.0297396E-4
4.9414062	2.8204295E-4
4.9438477	1.4452648E-4
4.946289	2.4907256E-5
4.9487305	5.820539E-5
4.951172	1.2604285E-4
4.9536133	1.3576263E-4
4.9560547	1.5594602E-4
4.958496	1.6655479E-4
4.9609375	1.0004226E-4
4.963379	8.1705846E-5
4.9658203	3.7228005E-5
4.9682617	2.5166886E-5
4.970703	4.5497363E-6
4.9731445	4.037817E-5
4.975586	7.616181E-5
4.9780273	6.617181E-5
4.9804688	3.169658E-5
4.98291	2.3345756E-5
4.9853516	2.7787293E-5
4.987793	1.700217E-5
4.9902344	4.1252228E-5
4.992676	4.3159274E-5
4.995117	6.849281E-5
4.9975586	1.158312E-5



DATASET #3

Name: EAS (cm/s)
Num Points: 2044
Info: 

X, Y Data:
0.009765625	3.4236674
0.012207031	4.151913
0.014648438	4.786592
0.017089844	5.286489
0.01953125	5.6522007
0.021972656	5.9551806
0.024414062	6.2787585
0.026855469	6.5958886
0.029296875	6.7664504
0.03173828	6.7674
0.034179688	6.9883323
0.036621094	8.0552
0.0390625	9.961406
0.041503906	11.929752
0.043945312	13.100533
0.04638672	12.963903
0.048828125	11.549173
0.05126953	9.549371
0.053710938	8.335564
0.056152344	8.959099
0.05859375	10.637008
0.061035156	12.043571
0.06347656	12.483691
0.06591797	11.83878
0.068359375	10.529331
0.07080078	9.567069
0.07324219	9.938085
0.075683594	11.228375
0.078125	12.082272
0.080566406	11.610308
0.08300781	10.084452
0.08544922	9.668808
0.087890625	12.737816
0.09033203	17.739616
0.09277344	22.046309
0.095214844	23.93186
0.09765625	22.63043
0.10009766	18.603361
0.10253906	14.22779
0.10498047	13.942936
0.10742188	17.89313
0.10986328	21.41637
0.11230469	21.82512
0.11474609	18.727673
0.1171875	13.784397
0.11962891	11.125952
0.12207031	13.224593
0.12451172	15.747689
0.12695312	15.707647
0.12939453	13.760951
0.13183594	13.877997
0.13427734	18.355217
0.13671875	23.733828
0.13916016	26.994232
0.14160156	27.697485
0.14404297	27.591621
0.14648438	28.68638
0.14892578	30.453463
0.15136719	30.408152
0.1538086	27.039795
0.15625	21.59514
0.1586914	18.627724
0.16113281	21.172256
0.16357422	24.785292
0.16601562	25.070072
0.16845703	21.054432
0.17089844	14.482363
0.17333984	9.9314165
0.17578125	11.516734
0.17822266	14.059637
0.18066406	13.750888
0.18310547	11.307072
0.18554688	11.641534
0.18798828	17.238766
0.19042969	23.383266
0.1928711	26.394798
0.1953125	24.66273
0.1977539	19.031542
0.20019531	15.673152
0.20263672	22.244642
0.20507812	31.469608
0.20751953	35.619312
0.20996094	31.287909
0.21240234	18.994074
0.21484375	10.824763
0.21728516	25.659203
0.21972656	39.179153
0.22216797	42.802708
0.22460938	34.82418
0.22705078	20.1305
0.22949219	20.881502
0.2319336	37.47946
0.234375	47.785393
0.2368164	45.592495
0.23925781	31.597845
0.24169922	14.394348
0.24414062	22.06583
0.24658203	37.772804
0.24902344	44.74912
0.25146484	41.271305
0.25390625	30.231766
0.25634766	18.712513
0.25878906	19.250925
0.26123047	28.754078
0.26367188	36.76091
0.26611328	40.64121
0.2685547	40.098125
0.2709961	35.38965
0.2734375	27.200111
0.2758789	17.602116
0.2783203	14.472883
0.28076172	24.259377
0.28320312	37.68607
0.28564453	49.627296
0.28808594	57.11346
0.29052734	57.315212
0.29296875	48.004536
0.29541016	29.081415
0.29785156	11.439359
0.30029297	34.12311
0.30273438	59.96667
0.30517578	75.18664
0.3076172	74.820404
0.3100586	58.614594
0.3125	32.350204
0.3149414	22.306894
0.3173828	47.568634
0.31982422	71.67415
0.32226562	87.43544
0.32470703	95.522934
0.32714844	97.077095
0.32958984	90.99586
0.33203125	77.35615
0.33447266	68.449165
0.33691406	87.72345
0.33935547	126.76686
0.34179688	161.50285
0.34423828	177.89737
0.3466797	173.62946
0.3491211	159.19052
0.3515625	154.45953
0.3540039	170.32939
0.3564453	195.45255
0.35888672	213.72968
0.36132812	217.39354
0.36376953	206.38705
0.36621094	184.2315
0.36865234	154.35472
0.37109375	119.26188
0.37353516	82.48906
0.37597656	50.043186
0.37841797	29.358236
0.38085938	27.031378
0.38330078	41.824776
0.3857422	67.219246
0.3881836	96.12253
0.390625	120.22741
0.3930664	131.6781
0.3955078	125.34539
0.39794922	100.93865
0.40039062	64.04015
0.40283203	30.38351
0.40527344	43.484406
0.40771484	76.49966
0.41015625	102.38616
0.41259766	115.89815
0.41503906	115.5131
0.41748047	103.38578
0.41992188	87.23411
0.42236328	81.40389
0.4248047	94.829575
0.4272461	116.08348
0.4296875	129.81886
0.4321289	130.61282
0.4345703	127.14743
0.43701172	135.72362
0.43945312	156.50204
0.44189453	171.5548
0.44433594	166.51096
0.44677734	139.78128
0.44921875	103.64495
0.45166016	83.495575
0.45410156	93.80796
0.45654297	115.85445
0.45898438	138.30315
0.46142578	157.9212
0.4638672	164.72437
0.4663086	148.46199
0.46875	119.07424
0.4711914	126.49511
0.4736328	186.10332
0.47607422	246.83537
0.47851562	275.99963
0.48095703	265.65588
0.48339844	229.73776
0.48583984	199.74939
0.48828125	199.3249
0.49072266	213.6646
0.49316406	219.22664
0.49560547	213.6657
0.49804688	207.30217
0.5004883	203.15862
0.5029297	192.62563
0.5053711	170.49493
0.5078125	146.1733
0.5102539	137.69333
0.5126953	146.4576
0.5151367	155.207
0.5175781	154.6163
0.52001953	148.14322
0.52246094	139.39708
0.52490234	123.83331
0.52734375	97.03327
0.52978516	68.89874
0.53222656	68.28279
0.53466797	91.409676
0.5371094	106.90987
0.5395508	102.96438
0.5419922	82.06562
0.5444336	56.332558
0.546875	45.769135
0.5493164	54.99364
0.5517578	64.66177
0.5541992	66.249306
0.5566406	61.334488
0.55908203	55.46929
0.56152344	53.502243
0.56396484	57.6083
0.56640625	68.642654
0.56884766	83.57342
0.57128906	95.41502
0.57373047	98.99155
0.5761719	95.15788
0.5786133	90.66447
0.5810547	92.77268
0.5834961	101.48869
0.5859375	111.41555
0.5883789	120.26873
0.5908203	130.00562
0.5932617	140.84926
0.5957031	150.1795
0.59814453	158.84685
0.60058594	171.22519
0.60302734	185.63435
0.60546875	192.16887
0.60791016	182.64478
0.61035156	159.91109
0.61279297	140.3482
0.6152344	139.8614
0.6176758	149.91624
0.6201172	154.74953
0.6225586	158.0294
0.625	173.8694
0.6274414	198.7001
0.6298828	214.0824
0.6323242	209.24753
0.6347656	189.68051
0.63720703	175.67368
0.63964844	185.69939
0.64208984	210.43456
0.64453125	226.75761
0.64697266	224.92538
0.64941406	215.18121
0.65185547	217.67902
0.6542969	237.4322
0.6567383	257.43494
0.6591797	259.87845
0.6616211	239.96265
0.6640625	207.92603
0.6665039	183.0888
0.6689453	176.49277
0.6713867	180.52802
0.6738281	185.93536
0.67626953	192.7776
0.67871094	203.17168
0.68115234	214.2848
0.68359375	220.2875
0.68603516	219.21043
0.68847656	217.30093
0.69091797	223.13306
0.6933594	235.33875
0.6958008	244.27747
0.6982422	245.35745
0.7006836	244.26369
0.703125	249.29999
0.7055664	259.0796
0.7080078	262.16882
0.7104492	248.7846
0.7128906	218.7629
0.71533203	181.29767
0.71777344	151.34123
0.72021484	142.4825
0.72265625	151.94788
0.72509766	162.25383
0.72753906	160.26808
0.72998047	144.38104
0.7324219	123.46558
0.7348633	112.45059
0.7373047	119.75514
0.7397461	137.97607
0.7421875	154.5229
0.7446289	159.57411
0.7470703	148.58382
0.7495117	126.33613
0.7519531	108.37928
0.75439453	108.49915
0.75683594	119.42619
0.75927734	127.55228
0.76171875	129.72363
0.76416016	129.8705
0.76660156	131.84428
0.76904297	136.0311
0.7714844	140.53574
0.7739258	143.92442
0.7763672	148.04866
0.7788086	158.732
0.78125	179.27707
0.7836914	203.78278
0.7861328	222.52443
0.7885742	229.82623
0.7910156	224.3071
0.79345703	206.88943
0.79589844	185.13776
0.79833984	177.59546
0.80078125	195.22583
0.80322266	220.93954
0.80566406	231.1061
0.80810547	215.65646
0.8105469	183.13383
0.8129883	159.21953
0.8154297	160.91272
0.8178711	169.75996
0.8203125	167.14413
0.8227539	156.89532
0.8251953	148.45132
0.8276367	140.90965
0.8300781	135.2401
0.83251953	143.39008
0.83496094	165.27263
0.83740234	182.56322
0.83984375	181.28009
0.84228516	161.43721
0.84472656	136.10039
0.84716797	125.93984
0.8496094	141.119
0.8520508	169.75906
0.8544922	194.4086
0.8569336	200.98524
0.859375	182.6803
0.8618164	146.5392
0.8642578	118.3368
0.8666992	125.592
0.8691406	152.47618
0.87158203	169.91415
0.87402344	166.82275
0.87646484	146.83102
0.87890625	123.69199
0.88134766	111.53683
0.88378906	111.27801
0.88623047	115.89073
0.8886719	123.94268
0.8911133	138.8753
0.8935547	164.46178
0.8959961	199.49466
0.8984375	234.51122
0.9008789	259.24936
0.9033203	275.5297
0.9057617	300.12463
0.9082031	344.1949
0.91064453	394.65714
0.91308594	430.4272
0.91552734	444.09668
0.91796875	443.9398
0.92041016	440.43555
0.92285156	434.2731
0.92529297	419.35828
0.9277344	391.59125
0.9301758	350.99686
0.9326172	300.26904
0.9350586	244.5252
0.9375	190.21072
0.9399414	142.94843
0.9423828	112.26219
0.9448242	120.26067
0.9472656	168.16386
0.94970703	225.82748
0.95214844	266.16678
0.95458984	274.0646
0.95703125	252.96574
0.95947266	227.43039
0.96191406	226.11835
0.96435547	248.16092
0.9667969	271.4421
0.9692383	283.4808
0.9716797	284.0533
0.9741211	275.0105
0.9765625	254.74644
0.9790039	224.0641
0.9814453	194.0666
0.9838867	177.59698
0.9863281	170.05408
0.98876953	159.51305
0.99121094	149.61563
0.99365234	152.08357
0.99609375	163.27689
0.99853516	171.05032
1.0009766	174.32768
1.003418	180.68407
1.0058594	189.94312
1.0083008	189.9568
1.0107422	170.89029
1.0131836	139.57916
1.015625	125.11322
1.0180664	147.23315
1.0205078	181.66333
1.0229492	204.92517
1.0253906	208.51192
1.027832	190.03613
1.0302734	154.20058
1.0327148	123.35212
1.0351562	130.68243
1.0375977	162.66466
1.0400391	182.26176
1.0424805	173.2739
1.0449219	139.0125
1.0473633	106.1443
1.0498047	120.40651
1.0522461	165.53654
1.0546875	197.79549
1.0571289	202.11679
1.0595703	185.49959
1.0620117	167.13847
1.0644531	161.59592
1.0668945	167.58528
1.0693359	180.72572
1.0717773	201.40865
1.0742188	224.2236
1.0766602	235.21613
1.0791016	223.44853
1.081543	193.24966
1.0839844	171.46967
1.0864258	190.92143
1.0888672	242.5321
1.0913086	294.6662
1.09375	327.56128
1.0961914	334.71295
1.0986328	319.95844
1.1010742	293.76132
1.1035156	269.7513
1.105957	261.31427
1.1083984	272.31375
1.1108398	291.83255
1.1132812	304.67606
1.1157227	300.69226
1.1181641	276.95605
1.1206055	240.5412
1.1230469	209.18935
1.1254883	197.7301
1.1279297	198.42789
1.1303711	191.90327
1.1328125	169.64136
1.1352539	140.73466
1.1376953	127.51633
1.1401367	138.7389
1.1425781	157.13322
1.1450195	173.4972
1.1474609	194.92085
1.1499023	225.678
1.1523438	255.73985
1.1547852	270.43274
1.1572266	262.2399
1.159668	236.04945
1.1621094	211.24004
1.1645508	214.67613
1.1669922	250.97559
1.1694336	296.13916
1.171875	327.35754
1.1743164	335.7894
1.1767578	325.378
1.1791992	306.35846
1.1816406	286.3406
1.184082	266.46146
1.1865234	245.77629
1.1889648	225.25336
1.1914062	205.2928
1.1938477	183.02797
1.1962891	156.35889
1.1987305	132.02687
1.2011719	127.37884
1.2036133	148.64822
1.2060547	180.14326
1.2084961	210.23062
1.2109375	238.11868
1.2133789	262.8114
1.2158203	276.9008
1.2182617	273.4704
1.2207031	253.56448
1.2231445	222.9519
1.2255859	185.53493
1.2280273	151.95033
1.2304688	158.43826
1.2329102	221.66212
1.2353516	305.93048
1.237793	379.6102
1.2402344	426.12842
1.2426758	442.43896
1.2451172	437.91443
1.2475586	427.50647
1.25	421.73044
1.2524414	421.43228
1.2548828	419.88052
1.2573242	410.38953
1.2597656	394.51538
1.262207	380.35864
1.2646484	370.27197
1.2670898	357.73364
1.2695312	339.42398
1.2719727	321.00403
1.2744141	309.14996
1.2768555	305.1823
1.2792969	308.3093
1.2817383	318.31537
1.2841797	334.17142
1.2866211	353.9374
1.2890625	374.8325
1.2915039	392.4455
1.2939453	404.40494
1.2963867	418.4135
1.2988281	451.56152
1.3012695	510.89542
1.3037109	579.90326
1.3061523	632.12915
1.3085938	648.59283
1.3110352	624.5983
1.3134766	571.8259
1.315918	518.2487
1.3183594	495.81223
1.3208008	512.0328
1.3232422	545.10095
1.3256836	574.28265
1.328125	595.33673
1.3305664	610.7347
1.3330078	617.77026
1.3354492	611.8488
1.3378906	598.87646
1.340332	596.30396
1.3427734	614.47906
1.3452148	640.6186
1.3476562	649.24457
1.3500977	622.4814
1.3525391	560.48755
1.3549805	481.74106
1.3574219	413.55884
1.3598633	371.70297
1.3623047	346.83673
1.3647461	320.3745
1.3671875	283.48404
1.3696289	235.65298
1.3720703	179.31976
1.3745117	128.15804
1.3769531	122.24032
1.3793945	167.93683
1.3818359	219.90862
1.3842773	256.23413
1.3867188	275.19595
1.3891602	284.95334
1.3916016	298.0937
1.394043	323.96158
1.3964844	358.62427
1.3989258	385.4785
1.4013672	388.16315
1.4038086	362.54755
1.40625	320.9724
1.4086914	288.2794
1.4111328	288.3011
1.4135742	324.1195
1.4160156	377.29068
1.418457	427.07065
1.4208984	464.83157
1.4233398	496.03687
1.4257812	526.8513
1.4282227	552.00037
1.4306641	564.0815
1.4331055	567.9599
1.4355469	576.83295
1.4379883	596.9327
1.4404297	622.447
1.4428711	641.3757
1.4453125	642.07275
1.4477539	621.648
1.4501953	593.99194
1.4526367	582.3921
1.4550781	591.69543
1.4575195	598.81647
1.4599609	583.73956
1.4624023	554.4321
1.4648438	531.19824
1.4672852	509.04428
1.4697266	457.811
1.472168	361.301
1.4746094	246.42271
1.4770508	207.34941
1.4794922	294.06384
1.4819336	409.1474
1.484375	503.28152
1.4868164	571.0896
1.4892578	625.5639
1.4916992	678.57715
1.4941406	723.5949
1.496582	743.48486
1.4990234	732.5533
1.5014648	702.4817
1.5039062	670.0593
1.5063477	648.9169
1.5087891	650.4019
1.5112305	674.05206
1.5136719	700.43134
1.5161133	709.48444
1.5185547	697.98645
1.5209961	674.2561
1.5234375	645.14856
1.5258789	610.8674
1.5283203	563.6966
1.5307617	491.79532
1.5332031	394.47763
1.5356445	298.6703
1.5380859	257.342
1.5405273	291.80362
1.5429688	363.17432
1.5454102	442.9396
1.5478516	519.34296
1.550293	586.85864
1.5527344	649.526
1.5551758	712.8394
1.5576172	768.9193
1.5600586	803.4864
1.5625	815.37836
1.5649414	819.0239
1.5673828	830.01794
1.5698242	852.2118
1.5722656	874.504
1.574707	880.432
1.5771484	865.7132
1.5795898	841.39386
1.5820312	816.8563
1.5844727	792.3704
1.5869141	771.999
1.5893555	765.8851
1.5917969	777.71277
1.5942383	804.47156
1.5966797	839.5726
1.5991211	864.43756
1.6015625	854.6086
1.6040039	806.1138
1.6064453	746.19904
1.6088867	704.50055
1.6113281	679.03705
1.6137695	655.09015
1.6162109	639.3388
1.6186523	646.4411
1.6210938	668.23596
1.6235352	679.61835
1.6259766	661.3027
1.628418	608.11163
1.6308594	527.31836
1.6333008	433.1864
1.6357422	340.74866
1.6381836	264.53717
1.640625	222.44913
1.6430664	230.5071
1.6455078	282.42856
1.6479492	354.19193
1.6503906	423.2888
1.652832	476.3106
1.6552734	511.3148
1.6577148	533.8031
1.6601562	549.3621
1.6625977	561.9989
1.6650391	577.12427
1.6674805	597.8192
1.6699219	617.85846
1.6723633	627.7814
1.6748047	629.0044
1.6772461	637.5729
1.6796875	672.88135
1.6821289	741.3614
1.6845703	828.22754
1.6870117	902.48016
1.6894531	931.8399
1.6918945	900.6765
1.6943359	822.6854
1.6967773	738.7745
1.6992188	690.34015
1.7016602	681.5462
1.7041016	682.8622
1.706543	668.9946
1.7089844	635.6048
1.7114258	596.8875
1.7138672	578.2405
1.7163086	596.67145
1.71875	643.5961
1.7211914	697.4048
1.7236328	741.3026
1.7260742	764.9545
1.7285156	762.87244
1.730957	735.96826
1.7333984	690.5916
1.7358398	634.127
1.7382812	571.7823
1.7407227	507.2431
1.7431641	445.71964
1.7456055	395.1976
1.7480469	361.8983
1.7504883	344.9465
1.7529297	339.88123
1.7553711	345.3707
1.7578125	361.929
1.7602539	386.89255
1.7626953	414.90213
1.7651367	442.42636
1.7675781	469.31793
1.7700195	497.07883
1.7724609	528.2469
1.7749023	565.3222
1.7773438	606.13873
1.7797852	641.9687
1.7822266	663.1328
1.784668	664.661
1.7871094	646.49493
1.7895508	611.8688
1.7919922	565.1963
1.7944336	506.10687
1.796875	426.25266
1.7993164	320.74463
1.8017578	210.20787
1.8041992	164.35384
1.8066406	215.29771
1.809082	280.1694
1.8115234	323.46616
1.8139648	347.6781
1.8164062	367.5768
1.8188477	397.37274
1.8212891	434.90262
1.8237305	463.7022
1.8261719	473.8404
1.8286133	475.3592
1.8310547	493.9092
1.8334961	547.71246
1.8359375	625.0917
1.8383789	694.43555
1.8408203	728.9711
1.8432617	718.9228
1.8457031	671.8314
1.8481445	608.45526
1.8505859	554.02716
1.8530273	521.29407
1.8554688	502.01544
1.8579102	484.55713
1.8603516	470.3582
1.862793	465.25186
1.8652344	465.72202
1.8676758	464.8112
1.8701172	464.62378
1.8725586	472.93253
1.875	488.25784
1.8774414	497.3644
1.8798828	489.73135
1.8823242	467.85983
1.8847656	441.08078
1.887207	411.48837
1.8896484	372.95416
1.8920898	326.17883
1.8945312	288.2938
1.8969727	276.22052
1.8994141	277.5215
1.9018555	265.1128
1.9042969	233.28915
1.9067383	207.09033
1.9091797	216.91148
1.9116211	258.02338
1.9140625	310.5568
1.9165039	362.5909
1.9189453	402.65356
1.9213867	420.78674
1.9238281	415.82306
1.9262695	395.0225
1.9287109	367.23685
1.9311523	337.78488
1.9335938	308.36823
1.9360352	279.86313
1.9384766	254.77235
1.940918	236.94073
1.9433594	230.07536
1.9458008	237.00409
1.9482422	257.758
1.9506836	288.04575
1.953125	320.7366
1.9555664	349.80133
1.9580078	375.48227
1.9604492	402.3765
1.9628906	427.04245
1.965332	434.73105
1.9677734	414.44977
1.9702148	372.31503
1.9726562	328.87842
1.9750977	303.8161
1.9775391	303.32437
1.9799805	324.58304
1.9824219	362.9565
1.9848633	409.89407
1.9873047	455.79755
1.9897461	498.06805
1.9921875	539.7236
1.9946289	579.42004
1.9970703	609.3655
1.9995117	624.4058
2.0019531	627.9659
2.0043945	629.85986
2.006836	642.32
2.0092773	674.5088
2.0117188	723.4367
2.0141602	773.909
2.0166016	812.8544
2.019043	840.83234
2.0214844	868.257
2.0239258	903.5672
2.0263672	948.53
2.0288086	1000.5599
2.03125	1052.4653
2.0336914	1092.95
2.0361328	1113.7191
2.0385742	1114.6505
2.0410156	1100.3875
2.043457	1076.4261
2.0458984	1049.8645
2.0483398	1025.8553
2.0507812	998.952
2.0532227	955.2994
2.055664	886.2638
2.0581055	795.57336
2.0605469	695.5301
2.0629883	602.2119
2.0654297	530.6309
2.067871	482.65112
2.0703125	442.03864
2.072754	393.19
2.0751953	341.12878
2.0776367	311.57355
2.0800781	328.1094
2.0825195	383.62717
2.084961	449.07892
2.0874023	496.2136
2.0898438	508.903
2.0922852	490.7394
2.0947266	465.41245
2.097168	462.31952
2.0996094	493.94113
2.1020508	550.66614
2.1044922	612.1033
2.1069336	655.1837
2.109375	663.7467
2.1118164	641.4109
2.1142578	615.4709
2.1166992	618.6216
2.1191406	655.64777
2.121582	698.23987
2.1240234	713.74524
2.1264648	688.05505
2.1289062	632.6368
2.1313477	577.0376
2.133789	543.9058
2.1362305	528.3257
2.1386719	514.212
2.1411133	499.63895
2.1435547	492.17792
2.145996	491.6331
2.1484375	491.8482
2.150879	491.65854
2.1533203	491.30762
2.1557617	484.89816
2.1582031	465.76196
2.1606445	432.88898
2.163086	386.73892
2.1655273	327.0553
2.1679688	264.06332
2.1704102	229.40736
2.1728516	246.68
2.175293	287.22424
2.1777344	311.70773
2.1801758	302.87054
2.1826172	268.15347
2.1850586	243.63646
2.1875	269.00128
2.1899414	328.17667
2.1923828	379.46005
2.1948242	401.82336
2.1972656	396.64267
2.199707	381.93622
2.2021484	383.1817
2.2045898	412.88516
2.2070312	457.28726
2.2094727	490.6482
2.211914	494.52805
2.2143555	469.59207
2.2167969	442.4065
2.2192383	451.72717
2.2216797	502.49384
2.224121	557.5324
2.2265625	581.8999
2.229004	564.4876
2.2314453	512.6633
2.2338867	441.4799
2.2363281	369.60025
2.2387695	321.7436
2.241211	316.67584
2.2436523	339.82022
2.2460938	356.67596
2.2485352	344.99356
2.2509766	303.12158
2.253418	249.02972
2.2558594	213.8618
2.2583008	210.7804
2.2607422	213.77592
2.2631836	201.4979
2.265625	186.35254
2.2680664	196.14311
2.2705078	226.74287
2.2729492	250.31482
2.2753906	257.49542
2.277832	270.4087
2.2802734	321.06567
2.2827148	403.8519
2.2851562	483.26175
2.2875977	528.76605
2.290039	525.5723
2.2924805	477.91324
2.2949219	418.419
2.2973633	407.3362
2.2998047	467.67038
2.302246	548.20215
2.3046875	598.52985
2.307129	601.7316
2.3095703	564.85223
2.3120117	510.58795
2.3144531	474.08154
2.3168945	480.59863
2.319336	510.6443
2.3217773	519.0542
2.3242188	479.46387
2.3266602	402.04285
2.3291016	334.68973
2.331543	337.627
2.3339844	404.7247
2.3364258	478.07578
2.3388672	517.8128
2.3413086	509.84262
2.34375	464.08755
2.3461914	414.00354
2.3486328	401.60413
2.3510742	439.15015
2.3535156	498.49915
2.355957	544.62244
2.3583984	553.9658
2.3608398	519.94214
2.3632812	459.09137
2.3657227	412.4589
2.368164	420.0077
2.3706055	471.50385
2.3730469	521.50946
2.3754883	537.8845
2.3779297	517.1925
2.380371	486.1064
2.3828125	490.10086
2.385254	550.93567
2.3876953	640.3133
2.3901367	713.8216
2.3925781	740.10834
2.3950195	707.9467
2.397461	627.1894
2.3999023	526.02844
2.4023438	441.59396
2.4047852	398.65347
2.4072266	385.68222
2.409668	367.11908
2.4121094	316.81122
2.4145508	234.62273
2.4169922	162.40857
2.4194336	186.19998
2.421875	270.98364
2.4243164	338.02676
2.4267578	360.5927
2.4291992	337.7075
2.4316406	283.21808
2.434082	219.79498
2.4365234	173.07498
2.4389648	159.57504
2.4414062	170.73576
2.4438477	186.38908
2.446289	192.56816
2.4487305	181.4022
2.4511719	153.31871
2.4536133	126.32321
2.4560547	133.09569
2.458496	168.1927
2.4609375	196.11131
2.463379	198.63179
2.4658203	179.15817
2.4682617	161.23447
2.4707031	173.2579
2.4731445	210.73871
2.475586	250.11035
2.4780273	280.94424
2.4804688	304.35645
2.4829102	322.0775
2.4853516	332.44394
2.487793	333.77386
2.4902344	325.1011
2.4926758	304.50388
2.4951172	276.07266
2.4975586	261.17422
2.5	281.5531
2.5024414	321.4485
2.5048828	348.39047
2.5073242	349.9941
2.5097656	337.44147
2.512207	330.18033
2.5146484	337.83264
2.5170898	356.07498
2.5195312	373.73975
2.5219727	377.64688
2.524414	358.37683
2.5268555	319.0099
2.5292969	279.52222
2.5317383	265.9247
2.5341797	282.12805
2.536621	307.25464
2.5390625	323.57553
2.541504	327.88065
2.5439453	327.93866
2.5463867	332.98596
2.5488281	343.3255
2.5512695	352.65222
2.553711	359.99457
2.5561523	370.7169
2.5585938	383.9696
2.5610352	388.80304
2.5634766	378.02966
2.565918	360.42734
2.5683594	355.76288
2.5708008	373.79028
2.5732422	403.37872
2.5756836	426.7053
2.578125	433.59076
2.5805664	424.54898
2.5830078	407.2914
2.5854492	390.6108
2.5878906	381.67786
2.590332	386.55362
2.5927734	403.80643
2.5952148	417.6412
2.5976562	409.11365
2.6000977	376.12393
2.602539	341.9031
2.6049805	336.14612
2.6074219	355.86005
2.6098633	370.2361
2.6123047	358.6956
2.614746	324.78064
2.6171875	294.54785
2.619629	299.93
2.6220703	339.1257
2.6245117	378.46353
2.6269531	391.72937
2.6293945	373.5369
2.631836	335.08493
2.6342773	296.64835
2.6367188	279.47137
2.6391602	292.9171
2.6416016	325.722
2.644043	357.77185
2.6464844	374.16043
2.6489258	368.52136
2.6513672	341.29718
2.6538086	297.70392
2.65625	246.60272
2.6586914	199.36383
2.6611328	166.4072
2.6635742	149.58171
2.6660156	138.68985
2.668457	122.45148
2.6708984	101.65807
2.6733398	93.71149
2.6757812	110.25214
2.6782227	133.30873
2.680664	145.39493
2.6831055	144.91249
2.6855469	145.44696
2.6879883	167.29762
2.6904297	214.81212
2.692871	273.44043
2.6953125	326.867
2.697754	365.39447
2.7001953	387.7472
2.7026367	398.0369
2.7050781	399.1491
2.7075195	391.65546
2.709961	383.9015
2.7124023	397.59793
2.7148438	444.5438
2.7172852	503.59665
2.7197266	543.3939
2.722168	551.4175
2.7246094	539.06604
2.7270508	528.1155
2.7294922	532.80817
2.7319336	552.674
2.734375	575.5325
2.7368164	584.2847
2.7392578	569.89417
2.7416992	543.5592
2.7441406	529.66156
2.746582	537.0479
2.7490234	547.71124
2.7514648	541.1406
2.7539062	514.0636
2.7563477	480.76233
2.758789	466.41324
2.7612305	490.80548
2.7636719	544.72345
2.7661133	594.79877
2.7685547	612.987
2.770996	598.1694
2.7734375	580.1652
2.775879	593.70514
2.7783203	635.3112
2.7807617	670.60657
2.7832031	678.9812
2.7856445	668.66315
2.788086	659.6563
2.7905273	663.52496
2.7929688	682.7037
2.7954102	716.78705
2.7978516	757.68225
2.800293	788.7981
2.8027344	798.7004
2.8051758	792.6521
2.8076172	788.8664
2.8100586	802.95245
2.8125	835.1639
2.8149414	871.3646
2.8173828	893.31433
2.8198242	889.86053
2.8222656	865.755
2.824707	842.69586
2.8271484	843.8298
2.8295898	868.6247
2.8320312	890.4843
2.8344727	882.8266
2.836914	841.6318
2.8393555	788.03235
2.8417969	753.40015
2.8442383	756.17584
2.8466797	789.6194
2.849121	830.31903
2.8515625	852.3426
2.854004	837.18536
2.8564453	781.6908
2.8588867	704.0773
2.8613281	642.8907
2.8637695	634.2022
2.866211	671.3057
2.8686523	709.22565
2.8710938	709.9365
2.8735352	667.2811
2.8759766	609.2384
2.878418	583.8375
2.8808594	618.7124
2.8833008	690.7558
2.8857422	755.6533
2.8881836	782.3945
2.890625	762.4915
2.8930664	710.1334
2.8955078	658.1957
2.8979492	643.3944
2.9003906	677.79645
2.902832	735.80457
2.9052734	775.69635
2.9077148	764.9878
2.9101562	697.3578
2.9125977	608.85046
2.915039	578.656
2.9174805	650.18774
2.9199219	760.3224
2.9223633	829.2298
2.9248047	824.15796
2.927246	762.44666
2.9296875	701.93256
2.932129	705.1311
2.9345703	772.89636
2.9370117	847.312
2.9394531	878.34015
2.9418945	853.0607
2.944336	793.3381
2.9467773	743.0883
2.9492188	742.8907
2.9516602	796.5466
2.9541016	868.79193
2.956543	917.22174
2.9589844	918.1459
2.9614258	879.0037
2.9638672	838.94794
2.9663086	843.8594
2.96875	900.8648
2.9711914	974.07074
2.9736328	1025.8185
2.9760742	1039.205
2.9785156	1016.6134
2.980957	976.5731
2.9833984	949.35675
2.9858398	956.81866
2.9882812	988.75745
2.9907227	1012.4374
2.993164	1004.1174
2.9956055	966.8647
2.9980469	928.5877
3.0004883	921.0641
3.0029297	947.3733
3.005371	976.47797
3.0078125	975.09076
3.010254	933.5803
3.0126953	868.2216
3.0151367	812.39166
3.0175781	799.85785
3.0200195	834.0042
3.022461	876.5574
3.0249023	882.3532
3.0273438	836.6159
3.0297852	765.9162
3.0322266	721.17004
3.034668	731.06256
3.0371094	769.03357
3.0395508	786.1115
3.0419922	755.22156
3.0444336	685.4717
3.046875	614.86304
3.0493164	580.8737
3.0517578	582.2431
3.0541992	585.4867
3.0566406	564.4331
3.059082	515.9098
3.0615234	453.84314
3.0639648	397.80777
3.0664062	360.8689
3.0688477	342.876
3.071289	336.0292
3.0737305	333.7301
3.0761719	330.80997
3.0786133	320.12033
3.0810547	295.0781
3.083496	256.59518
3.0859375	215.883
3.088379	187.18796
3.0908203	173.95093
3.0932617	168.1071
3.0957031	164.01224
3.0981445	161.80128
3.100586	160.57558
3.1030273	155.94167
3.1054688	144.17542
3.1079102	127.80243
3.1103516	119.01864
3.112793	128.94775
3.1152344	146.39471
3.1176758	149.84769
3.1201172	129.49046
3.1225586	102.12175
3.125	119.22023
3.1274414	179.45486
3.1298828	237.12653
3.1323242	269.89767
3.1347656	273.36664
3.137207	256.0034
3.1396484	239.6434
3.1420898	253.55508
3.1445312	300.3945
3.1469727	347.2398
3.149414	361.50784
3.1518555	331.85394
3.1542969	272.68588
3.1567383	220.57462
3.1591797	208.22601
3.161621	218.18523
3.1640625	210.95648
3.166504	172.26552
3.1689453	124.03677
3.1713867	133.16708
3.1738281	200.65128
3.1762695	263.8452
3.178711	294.76566
3.1811523	290.29477
3.1835938	267.71365
3.1860352	257.29288
3.1884766	274.86047
3.190918	306.69833
3.1933594	336.77536
3.1958008	361.00275
3.1982422	376.9349
3.2006836	377.40482
3.203125	358.5835
3.2055664	329.93234
3.2080078	310.91132
3.2104492	310.31958
3.2128906	313.82156
3.215332	301.85083
3.2177734	268.70117
3.2202148	227.37897
3.2226562	205.6087
3.2250977	221.39516
3.227539	257.91602
3.2299805	289.48044
3.2324219	303.09866
3.2348633	297.53275
3.2373047	280.00113
3.239746	263.5774
3.2421875	261.15665
3.244629	274.66638
3.2470703	292.30957
3.2495117	298.6653
3.2519531	283.95673
3.2543945	248.20226
3.256836	203.30965
3.2592773	171.40192
3.2617188	167.12933
3.2641602	177.21617
3.2666016	183.5136
3.269043	184.1413
3.2714844	185.3393
3.2739258	187.85844
3.2763672	187.50903
3.2788086	184.40115
3.28125	182.63837
3.2836914	181.60516
3.2861328	175.06683
3.2885742	160.80939
3.2910156	148.81618
3.293457	157.04512
3.2958984	186.73872
3.2983398	217.51378
3.3007812	230.95824
3.3032227	225.14127
3.305664	221.37209
3.3081055	250.48317
3.3105469	310.5483
3.3129883	370.91165
3.3154297	406.57004
3.317871	410.30008
3.3203125	395.4661
3.322754	391.0476
3.3251953	416.07477
3.3276367	455.55017
3.3300781	479.65952
3.3325195	472.31323
3.334961	437.83566
3.3374023	394.25455
3.3398438	364.31265
3.3422852	366.61572
3.3447266	401.97748
3.347168	448.95413
3.3496094	480.62845
3.3520508	482.4154
3.3544922	459.81613
3.3569336	436.02112
3.359375	435.0971
3.3618164	457.19104
3.3642578	478.83136
3.3666992	477.75296
3.3691406	449.1797
3.371582	408.25592
3.3740234	382.50378
3.3764648	391.0718
3.3789062	425.7048
3.3813477	461.58698
3.383789	477.05768
3.3862305	461.8595
3.3886719	422.45407
3.3911133	386.4074
3.3935547	388.29688
3.395996	428.3858
3.3984375	471.44534
3.400879	489.42203
3.4033203	478.24286
3.4057617	450.70798
3.4082031	423.55173
3.4106445	408.26624
3.413086	407.51456
3.4155273	413.3324
3.4179688	410.53296
3.4204102	388.34967
3.4228516	352.61163
3.425293	327.7476
3.4277344	335.25192
3.4301758	363.61456
3.4326172	382.8085
3.4350586	374.92325
3.4375	341.857
3.4399414	301.13638
3.4423828	277.19357
3.4448242	283.81342
3.4472656	309.48703
3.449707	329.94733
3.4521484	326.5581
3.4545898	294.75476
3.4570312	250.1527
3.4594727	229.9918
3.461914	258.4082
3.4643555	307.8131
3.4667969	341.8823
3.4692383	344.47168
3.4716797	318.20813
3.474121	282.25153
3.4765625	267.4565
3.479004	291.12527
3.4814453	334.69702
3.4838867	368.24115
3.4863281	372.66544
3.4887695	343.2342
3.491211	291.55444
3.4936523	249.0651
3.4960938	252.56822
3.4985352	295.39493
3.5009766	337.91415
3.503418	352.8673
3.5058594	331.19086
3.5083008	279.56534
3.5107422	225.55817
3.5131836	219.21327
3.515625	272.18762
3.5180664	335.62192
3.5205078	371.63602
3.5229492	367.07556
3.5253906	327.0284
3.527832	270.81448
3.5302734	228.45494
3.5327148	224.80603
3.5351562	249.519
3.5375977	270.90265
3.540039	266.877
3.5424805	229.93892
3.5449219	165.87585
3.5473633	98.71735
3.5498047	92.0512
3.552246	141.45396
3.5546875	176.57831
3.557129	175.0267
3.5595703	137.43797
3.5620117	86.70139
3.5644531	88.92004
3.5668945	143.76183
3.569336	188.67014
3.5717773	202.45605
3.5742188	182.0874
3.5766602	137.5248
3.5791016	101.77461
3.581543	127.06805
3.5839844	187.31326
3.5864258	237.72833
3.5888672	259.8093
3.5913086	248.55191
3.59375	209.26936
3.5961914	159.0196
3.5986328	132.24481
3.6010742	156.2867
3.6035156	202.56784
3.605957	238.0153
3.6083984	248.29922
3.6108398	230.43134
3.6132812	189.59058
3.6157227	140.45168
3.618164	115.38073
3.6206055	141.51926
3.6230469	187.40567
3.6254883	219.3142
3.6279297	223.17249
3.630371	197.34521
3.6328125	149.95642
3.635254	102.05293
3.6376953	97.195946
3.6401367	138.65775
3.6425781	180.02715
3.6450195	198.0479
3.647461	185.56517
3.6499023	146.74367
3.6523438	100.07912
3.6547852	87.42711
3.6572266	119.5906
3.659668	150.76064
3.6621094	158.65369
3.6645508	140.86769
3.6669922	108.24418
3.6694336	87.42946
3.671875	103.2064
3.6743164	134.4075
3.6767578	155.57234
3.6791992	157.76273
3.6816406	142.94174
3.684082	123.02645
3.6865234	117.51664
3.6889648	134.48216
3.6914062	159.49635
3.6938477	176.8364
3.696289	179.0359
3.6987305	166.42242
3.7011719	148.25687
3.7036133	142.2799
3.7060547	159.18767
3.708496	187.21837
3.7109375	208.11398
3.713379	210.81403
3.7158203	193.41388
3.7182617	164.18204
3.7207031	141.43912
3.7231445	140.69006
3.725586	152.8653
3.7280273	158.70981
3.7304688	151.2765
3.7329102	138.17722
3.7353516	134.64494
3.737793	146.69669
3.7402344	163.80426
3.7426758	174.43117
3.7451172	176.2154
3.7475586	175.34148
3.75	179.80933
3.7524414	190.19304
3.7548828	198.83047
3.7573242	198.51836
3.7597656	189.60258
3.762207	180.51201
3.7646484	180.6487
3.7670898	190.4206
3.7695312	202.3142
3.7719727	209.73373
3.774414	210.03152
3.7768555	203.08623
3.7792969	190.99297
3.7817383	178.85751
3.7841797	173.15668
3.786621	176.49628
3.7890625	184.39012
3.791504	188.6661
3.7939453	183.4641
3.7963867	170.45235
3.7988281	160.79686
3.8012695	166.34624
3.803711	184.05801
3.8061523	200.53323
3.8085938	206.21371
3.8110352	198.41588
3.8134766	180.40385
3.815918	162.7938
3.8183594	160.56795
3.8208008	175.91888
3.8232422	193.0827
3.8256836	196.82857
3.828125	182.25017
3.8305664	154.25226
3.8330078	125.42925
3.8354492	111.7009
3.8378906	116.935
3.840332	127.01713
3.8427734	129.19502
3.8452148	120.37559
3.8476562	104.87852
3.8500977	91.85664
3.852539	90.78506
3.8549805	101.43909
3.8574219	113.74087
3.8598633	118.34419
3.8623047	111.3643
3.864746	95.788895
3.8671875	82.85703
3.869629	85.86013
3.8720703	100.65792
3.8745117	111.67101
3.8769531	109.64045
3.8793945	94.13123
3.881836	72.4543
3.8842773	59.119686
3.8867188	64.76134
3.8891602	78.65416
3.8916016	87.92899
3.894043	88.11291
3.8964844	80.309006
3.8989258	69.19182
3.9013672	60.662167
3.9038086	57.74431
3.90625	58.463676
3.9086914	59.32992
3.9111328	58.076206
3.9135742	53.532757
3.9160156	45.7867
3.918457	37.121937
3.9208984	32.28226
3.9233398	34.536304
3.9257812	40.625942
3.9282227	45.461483
3.930664	45.738533
3.9331055	39.918114
3.9355469	28.847216
3.9379883	18.636732
3.9404297	22.823366
3.942871	35.079025
3.9453125	44.13867
3.947754	46.40278
3.9501953	41.113785
3.9526367	29.703775
3.9550781	18.55422
3.9575195	23.089699
3.959961	36.51878
3.9624023	46.0117
3.9648438	47.757824
3.9672852	41.693474
3.9697266	30.243956
3.972168	18.630075
3.9746094	17.108158
3.9770508	24.738205
3.9794922	30.73707
3.9819336	31.841263
3.984375	28.489952
3.9868164	22.990326
3.9892578	18.348158
3.9916992	16.240788
3.9941406	15.669129
3.996582	15.52347
3.9990234	16.65787
4.001465	20.11465
4.0039062	24.884933
4.0063477	28.888445
4.008789	30.403982
4.0112305	28.571545
4.013672	23.78546
4.0161133	18.841925
4.0185547	19.657354
4.020996	26.686832
4.0234375	33.91507
4.025879	37.58537
4.0283203	36.740463
4.0307617	32.481037
4.033203	27.335287
4.0356445	24.677464
4.038086	26.879824
4.0405273	32.336613
4.0429688	37.16953
4.04541	38.19593
4.0478516	34.093666
4.050293	26.32485
4.0527344	20.900932
4.055176	25.184916
4.057617	34.09947
4.0600586	40.305195
4.0625	40.741814
4.0649414	35.17422
4.067383	26.122034
4.069824	20.344334
4.0722656	24.60909
4.074707	32.622696
4.0771484	37.493645
4.07959	36.885796
4.0820312	31.078873
4.0844727	22.669939
4.086914	17.548815
4.0893555	20.67139
4.091797	26.31739
4.0942383	29.01121
4.0966797	27.253342
4.099121	21.734608
4.1015625	15.155844
4.104004	13.396577
4.1064453	18.27714
4.1088867	23.364643
4.111328	24.93561
4.1137695	21.99051
4.116211	15.526239
4.1186523	9.928128
4.1210938	13.120004
4.123535	19.681759
4.1259766	23.485462
4.128418	22.954157
4.1308594	18.602299
4.133301	13.204521
4.135742	12.632966
4.1381836	17.4883
4.140625	21.927279
4.1430664	23.240894
4.145508	21.160456
4.147949	16.99894
4.1503906	13.570616
4.152832	13.897745
4.1552734	16.914465
4.157715	19.629671
4.1601562	20.660482
4.1625977	19.8393
4.165039	17.620874
4.1674805	14.886257
4.169922	12.904401
4.1723633	12.709042
4.1748047	13.854697
4.177246	14.966694
4.1796875	15.115589
4.182129	14.054122
4.1845703	12.068891
4.1870117	10.061365
4.189453	9.5294895
4.1918945	10.894314
4.194336	12.577362
4.1967773	13.105899
4.1992188	12.041728
4.20166	9.920488
4.2041016	8.084805
4.206543	7.8891273
4.2089844	8.9128475
4.211426	9.7458515
4.213867	9.683766
4.2163086	8.758487
4.21875	7.4512587
4.2211914	6.4054713
4.223633	5.9995008
4.226074	6.0287504
4.2285156	6.02394
4.230957	5.6875086
4.2333984	4.9972954
4.23584	4.1837273
4.2382812	3.627148
4.2407227	3.537054
4.243164	3.702342
4.2456055	3.8025405
4.248047	3.6920612
4.2504883	3.3922248
4.2529297	3.032294
4.255371	2.766886
4.2578125	2.638008
4.260254	2.539955
4.2626953	2.3849463
4.2651367	2.2339914
4.267578	2.2267187
4.2700195	2.3781307
4.272461	2.5465682
4.2749023	2.5899017
4.2773438	2.4446404
4.279785	2.1457095
4.2822266	1.8539323
4.284668	1.8000329
4.2871094	1.9964789
4.289551	2.2003555
4.291992	2.226375
4.2944336	2.0568175
4.296875	1.821559
4.2993164	1.724997
4.301758	1.8413657
4.304199	2.0188582
4.3066406	2.091706
4.309082	2.0151095
4.3115234	1.84898
4.313965	1.6930372
4.3164062	1.6095221
4.3188477	1.5813287
4.321289	1.5410264
4.3237305	1.432128
4.326172	1.251731
4.3286133	1.0658481
4.3310547	0.9717129
4.333496	0.9864611
4.3359375	1.0217245
4.338379	0.99761456
4.3408203	0.89398056
4.3432617	0.7403931
4.345703	0.61011225
4.3481445	0.5861109
4.350586	0.6543566
4.3530273	0.72289395
4.3554688	0.73333687
4.35791	0.6759991
4.3603516	0.5783114
4.362793	0.49862567
4.3652344	0.49184358
4.367676	0.5396636
4.370117	0.57814133
4.3725586	0.56914335
4.375	0.51134646
4.3774414	0.43196252
4.379883	0.37848386
4.382324	0.38348106
4.3847656	0.41957065
4.387207	0.4379431
4.3896484	0.4157132
4.39209	0.35899904
4.3945312	0.29291677
4.3969727	0.24725261
4.399414	0.23278663
4.4018555	0.23072147
4.404297	0.2204233
4.4067383	0.19738084
4.4091797	0.16990732
4.411621	0.15054458
4.4140625	0.14485615
4.416504	0.1477506
4.4189453	0.15356132
4.4213867	0.16029504
4.423828	0.16549158
4.4262695	0.16460311
4.428711	0.15404461
4.4311523	0.13375711
4.4335938	0.10834194
4.436035	0.08774026
4.4384766	0.08548385
4.440918	0.10261704
4.4433594	0.12380819
4.445801	0.13512117
4.448242	0.13016602
4.4506836	0.11041839
4.453125	0.08692991
4.4555664	0.076803744
4.458008	0.08455237
4.460449	0.09538573
4.4628906	0.098676
4.465332	0.092374854
4.4677734	0.08007944
4.470215	0.06968654
4.4726562	0.068683304
4.4750977	0.0757142
4.477539	0.082924694
4.4799805	0.08481262
4.482422	0.08026468
4.4848633	0.07166355
4.4873047	0.06495613
4.489746	0.066077895
4.4921875	0.07332088
4.494629	0.07916374
4.4970703	0.07767595
4.4995117	0.06760195
4.501953	0.052661985
4.5043945	0.040605832
4.506836	0.041050877
4.5092773	0.048654158
4.5117188	0.0525518
4.51416	0.0482256
4.5166016	0.037578385
4.519043	0.02732233
4.5214844	0.026762033
4.523926	0.032161318
4.526367	0.034158554
4.5288086	0.029554753
4.53125	0.019852683
4.5336914	0.011157083
4.536133	0.015719824
4.538574	0.024496665
4.5410156	0.029659836
4.543457	0.030066364
4.5458984	0.026549928
4.54834	0.020888124
4.5507812	0.015340283
4.5532227	0.012523452
4.555664	0.013979965
4.5581055	0.017520014
4.560547	0.020779995
4.5629883	0.022487244
4.5654297	0.021706603
4.567871	0.018227888
4.5703125	0.012769201
4.572754	0.008534694
4.5751953	0.010685809
4.5776367	0.015430795
4.580078	0.018449053
4.5825195	0.018429356
4.584961	0.015194966
4.5874023	0.009790326
4.5898438	0.0053949202
4.592285	0.008156682
4.5947266	0.012460069
4.597168	0.014574058
4.5996094	0.013963128
4.602051	0.011165441
4.604492	0.0077290223
4.6069336	0.0065065622
4.609375	0.008575278
4.6118164	0.010764705
4.614258	0.011607945
4.616699	0.01102633
4.6191406	0.0093297595
4.621582	0.007440993
4.6240234	0.006280077
4.626465	0.0064408556
4.6289062	0.0074632484
4.6313477	0.008473508
4.633789	0.009146547
4.6362305	0.009208072
4.638672	0.008617682
4.6411133	0.007361298
4.6435547	0.006020898
4.645996	0.0059067514
4.6484375	0.0069580707
4.650879	0.007956625
4.6533203	0.008191348
4.6557617	0.007506685
4.658203	0.0059762932
4.6606445	0.0043722675
4.663086	0.0041334196
4.6655273	0.0050686174
4.6679688	0.0060719894
4.67041	0.006350969
4.6728516	0.0057834447
4.675293	0.0045821946
4.6777344	0.003325677
4.680176	0.0030243932
4.682617	0.003708762
4.6850586	0.004502968
4.6875	0.0048788283
4.6899414	0.004750205
4.692383	0.0041661756
4.694824	0.003583484
4.6972656	0.0032699204
4.699707	0.0034377796
4.7021484	0.0038045815
4.70459	0.0041291416
4.7070312	0.0041579595
4.7094727	0.0039040192
4.711914	0.0033607553
4.7143555	0.0028802801
4.716797	0.0027097655
4.7192383	0.0029680952
4.7216797	0.0034107044
4.724121	0.0036927452
4.7265625	0.0036227934
4.729004	0.0031304115
4.7314453	0.0024581365
4.7338867	0.002110757
4.736328	0.0024747774
4.7387695	0.0031638262
4.741211	0.0035544601
4.7436523	0.0034452335
4.7460938	0.0028868853
4.748535	0.0021713744
4.7509766	0.0017759904
4.753418	0.0020905994
4.7558594	0.0027757415
4.758301	0.0032523037
4.760742	0.0032679427
4.7631836	0.0029805347
4.765625	0.002407237
4.7680664	0.0019737685
4.770508	0.0020755052
4.772949	0.002432904
4.7753906	0.0027016003
4.777832	0.0027347917
4.7802734	0.0025269508
4.782715	0.0022224002
4.7851562	0.0021977217
4.7875977	0.0023683053
4.790039	0.0026194593
4.7924805	0.0027112914
4.794922	0.0025573345
4.7973633	0.0022496646
4.7998047	0.0020210415
4.802246	0.0021102903
4.8046875	0.0023047875
4.807129	0.002482482
4.8095703	0.002435277
4.8120117	0.0022510204
4.814453	0.002004212
4.8168945	0.0018577642
4.819336	0.0019210135
4.8217773	0.0019754716
4.8242188	0.0020595815
4.82666	0.002012591
4.8291016	0.0018813435
4.831543	0.0018004949
4.8339844	0.0017329582
4.836426	0.0016054369
4.838867	0.0014434356
4.8413086	0.0013211622
4.84375	0.0012367895
4.8461914	0.0012370573
4.848633	0.0013221027
4.851074	0.0012666733
4.8535156	0.0011482196
4.855957	9.849961E-4
4.8583984	8.549751E-4
4.86084	7.1936334E-4
4.8632812	7.841401E-4
4.8657227	9.228543E-4
4.868164	9.0853963E-4
4.8706055	8.0309325E-4
4.873047	6.8768224E-4
4.8754883	5.1714457E-4
4.8779297	4.188787E-4
4.880371	5.6197867E-4
4.8828125	7.442416E-4
4.885254	8.642394E-4
4.8876953	8.414779E-4
4.8901367	6.736928E-4
4.892578	5.3298555E-4
4.8950195	3.5722365E-4
4.897461	3.491277E-4
4.8999023	4.909506E-4
4.9023438	5.809025E-4
4.904785	6.007952E-4
4.9072266	4.0456926E-4
4.909668	2.8661915E-4
4.9121094	1.8835651E-4
4.914551	2.7106225E-4
4.916992	3.2703034E-4
4.9194336	3.8984657E-4
4.921875	3.731936E-4
4.9243164	3.03319E-4
4.926758	1.9459653E-4
4.929199	7.233618E-5
4.9316406	1.3409035E-4
4.934082	1.9408666E-4
4.9365234	2.2494835E-4
4.938965	2.2409897E-4
4.9414062	2.111571E-4
4.9438477	1.2736907E-4
4.946289	5.4612596E-5
4.9487305	4.4756696E-5
4.951172	1.0240251E-4
4.9536133	1.0276939E-4
4.9560547	1.1780561E-4
4.958496	1.2313387E-4
4.9609375	7.455541E-5
4.963379	6.4399675E-5
4.9658203	3.4984383E-5
4.9682617	5.116887E-5
4.970703	6.391781E-5
4.9731445	3.9686834E-5
4.975586	1.0050049E-4
4.9780273	5.4591546E-5
4.9804688	9.398762E-5
4.98291	8.072048E-5
4.9853516	5.5785065E-5
4.987793	2.0564927E-5
4.9902344	6.783527E-5
4.992676	4.787473E-5
4.995117	7.760148E-5
4.9975586	3.6433834E-5



DATASET #4

Name: Smoothed EAS, b=188.500000 (cm/s)
Num Points: 2044
Info: 

X, Y Data:
0.009765625	3.4236674
0.012207031	5.7901106
0.014648438	6.0101266
0.017089844	6.32308
0.01953125	6.673122
0.021972656	6.7666845
0.024414062	6.8904486
0.026855469	6.9927974
0.029296875	9.577337
0.03173828	9.961407
0.034179688	13.096473
0.036621094	13.090765
0.0390625	12.919468
0.041503906	10.288676
0.043945312	8.335711
0.04638672	8.335618
0.048828125	9.15041
0.05126953	10.989344
0.053710938	12.168939
0.056152344	12.354786
0.05859375	11.837148
0.061035156	9.613766
0.06347656	9.825471
0.06591797	10.598171
0.068359375	11.52747
0.07080078	11.986122
0.07324219	11.475146
0.075683594	10.075218
0.078125	9.672713
0.080566406	14.577698
0.08300781	13.155863
0.08544922	17.954601
0.087890625	21.970388
0.09033203	23.511726
0.09277344	21.840918
0.095214844	17.99144
0.09765625	14.863445
0.10009766	15.645055
0.10253906	19.169628
0.10498047	20.959776
0.10742188	18.946493
0.10986328	14.460303
0.11230469	11.779391
0.11474609	13.456021
0.1171875	15.488357
0.11962891	15.478018
0.12207031	14.324909
0.12451172	15.006177
0.12695312	19.23923
0.12939453	24.083647
0.13183594	27.030775
0.13427734	27.73615
0.13671875	27.751102
0.13916016	28.811205
0.14160156	30.199623
0.14404297	29.725176
0.14648438	26.638697
0.14892578	22.754019
0.15136719	20.72319
0.1538086	20.939058
0.15625	22.737501
0.1586914	23.377312
0.16113281	21.913406
0.16357422	24.91317
0.16601562	20.867504
0.16845703	14.374649
0.17089844	9.995539
0.17333984	11.593362
0.17578125	14.038522
0.17822266	13.681115
0.18066406	11.393628
0.18310547	11.99167
0.18554688	17.596682
0.18798828	23.528267
0.19042969	26.242632
0.1928711	24.286718
0.1953125	18.858187
0.1977539	16.282778
0.20019531	23.033983
0.20263672	31.758694
0.20507812	35.137486
0.20751953	30.056574
0.20996094	18.223549
0.21240234	12.6261
0.21484375	27.258688
0.21728516	39.55562
0.21972656	41.72116
0.22216797	32.865925
0.22460938	20.36461
0.22705078	23.39796
0.22949219	38.978447
0.2319336	47.30257
0.234375	43.176323
0.2368164	28.718988
0.23925781	15.933232
0.24169922	25.002525
0.24414062	29.531227
0.24658203	40.5005
0.24902344	42.131893
0.25146484	35.21361
0.25390625	25.112154
0.25634766	19.990711
0.25878906	24.514112
0.26123047	32.876884
0.26367188	38.449142
0.26611328	39.751186
0.2685547	36.801773
0.2709961	30.294992
0.2734375	22.33425
0.2758789	17.558882
0.2783203	21.237537
0.28076172	32.595978
0.28320312	44.63112
0.28564453	53.243565
0.28808594	55.55288
0.29052734	49.49917
0.29296875	36.15947
0.29541016	24.128714
0.29785156	27.60368
0.30029297	49.990593
0.30273438	67.434074
0.30517578	71.57087
0.3076172	61.512386
0.3100586	43.72267
0.3125	32.354397
0.3149414	40.85768
0.3173828	63.807686
0.31982422	81.83518
0.32226562	91.97765
0.32470703	92.87138
0.32714844	92.06088
0.32958984	86.415794
0.33203125	81.58397
0.33447266	86.095276
0.33691406	105.15855
0.33935547	133.78987
0.34179688	158.3056
0.34423828	169.4316
0.3466797	168.5594
0.3491211	164.68127
0.3515625	167.5698
0.3540039	180.33575
0.3564453	196.87917
0.35888672	207.3319
0.36132812	205.7884
0.36376953	191.78893
0.36621094	167.8626
0.36865234	137.44846
0.37109375	104.35936
0.37353516	73.240616
0.37597656	49.571865
0.37841797	38.25301
0.38085938	41.439697
0.38330078	57.17811
0.3857422	79.68882
0.3881836	101.63696
0.390625	116.0585
0.3930664	117.75895
0.3955078	105.49335
0.39794922	83.911446
0.40039062	63.14197
0.40283203	54.279465
0.40527344	62.670143
0.40771484	76.738205
0.41015625	93.778114
0.41259766	104.16482
0.41503906	105.43457
0.41748047	101.05712
0.41992188	96.5413
0.42236328	96.65903
0.4248047	102.90606
0.4272461	113.03451
0.4296875	123.13614
0.4321289	130.94955
0.4345703	137.4579
0.43701172	144.26898
0.43945312	150.38664
0.44189453	151.9029
0.44433594	145.10286
0.44677734	130.93456
0.44921875	115.80233
0.45166016	107.39736
0.45410156	109.87428
0.45654297	121.50459
0.45898438	135.5577
0.46142578	145.09004
0.4638672	148.69315
0.4663086	150.22972
0.46875	156.16818
0.4711914	171.741
0.4736328	196.724
0.47607422	223.83633
0.47851562	241.16273
0.48095703	242.02693
0.48339844	231.30542
0.48583984	218.4116
0.48828125	214.27724
0.49072266	210.40717
0.49316406	209.28847
0.49560547	207.5822
0.49804688	202.4401
0.5004883	193.39703
0.5029297	181.95277
0.5053711	170.20013
0.5078125	160.048
0.5102539	152.81888
0.5126953	148.76303
0.5151367	146.59302
0.5175781	143.73059
0.52001953	137.52985
0.52246094	127.17898
0.52490234	114.44913
0.52734375	102.35153
0.52978516	93.36341
0.53222656	88.325325
0.53466797	86.301704
0.5371094	85.18921
0.5395508	82.71442
0.5419922	77.28692
0.5444336	69.82218
0.546875	63.195637
0.5493164	59.373222
0.5517578	58.502815
0.5541992	59.427452
0.5566406	60.6528
0.55908203	61.73961
0.56152344	63.841797
0.56396484	67.95803
0.56640625	73.990135
0.56884766	79.82802
0.57128906	85.83973
0.57373047	90.80254
0.5761719	94.72965
0.5786133	98.252495
0.5810547	102.27433
0.5834961	107.57611
0.5859375	114.51196
0.5883789	122.94479
0.5908203	132.38268
0.5932617	142.17941
0.5957031	151.67691
0.59814453	160.13948
0.60058594	166.6316
0.60302734	170.2127
0.60546875	170.4523
0.60791016	167.81792
0.61035156	163.58336
0.61279297	159.44345
0.6152344	157.13918
0.6176758	158.01704
0.6201172	162.50427
0.6225586	169.82378
0.625	178.17802
0.6274414	185.58295
0.6298828	191.10449
0.6323242	194.99364
0.6347656	197.9123
0.63720703	200.43568
0.63964844	203.28381
0.64208984	207.25835
0.64453125	212.70857
0.64697266	219.20352
0.64941406	224.23419
0.65185547	228.90843
0.6542969	231.31494
0.6567383	230.7049
0.6591797	227.0147
0.6616211	220.82478
0.6640625	213.2218
0.6665039	205.57655
0.6689453	199.35094
0.6713867	195.792
0.6738281	195.47816
0.67626953	198.1408
0.67871094	202.86293
0.68115234	208.48682
0.68359375	214.11703
0.68603516	219.43578
0.68847656	224.49435
0.69091797	229.35562
0.6933594	233.95422
0.6958008	238.0794
0.6982422	241.32335
0.7006836	243.01035
0.703125	242.23567
0.7055664	238.15836
0.7080078	230.48276
0.7104492	219.69804
0.7128906	206.8812
0.71533203	193.28503
0.71777344	180.04594
0.72021484	168.08688
0.72265625	158.07217
0.72509766	150.31337
0.72753906	144.75575
0.72998047	141.08055
0.7324219	139.02327
0.7348633	137.45709
0.7373047	136.63168
0.7397461	136.06946
0.7421875	135.3783
0.7446289	134.29094
0.7470703	132.72539
0.7495117	130.81892
0.7519531	128.87553
0.75439453	127.30009
0.75683594	126.53511
0.75927734	126.91198
0.76171875	128.57729
0.76416016	131.54274
0.76660156	135.74896
0.76904297	141.0873
0.7714844	147.46008
0.7739258	154.88834
0.7763672	163.32817
0.7788086	172.40894
0.78125	181.43272
0.7836914	189.58786
0.7861328	196.21155
0.7885742	200.96062
0.7910156	203.83832
0.79345703	205.07867
0.79589844	204.96797
0.79833984	203.7429
0.80078125	201.59357
0.80322266	198.64383
0.80566406	194.9305
0.80810547	190.4723
0.8105469	185.37497
0.8129883	179.88902
0.8154297	174.0217
0.8178711	168.41444
0.8203125	163.42459
0.8227539	159.43642
0.8251953	156.73958
0.8276367	155.38007
0.8300781	155.12035
0.83251953	155.49731
0.83496094	156.0601
0.83740234	156.66612
0.83984375	157.374
0.84228516	158.20946
0.84472656	159.12872
0.84716797	160.07764
0.8496094	160.92628
0.8520508	161.39697
0.8544922	161.2383
0.8569336	160.39493
0.859375	158.94241
0.8618164	156.97774
0.8642578	154.5501
0.8666992	151.64325
0.8691406	148.2954
0.87158203	144.76474
0.87402344	141.50485
0.87646484	139.10815
0.87890625	138.25136
0.88134766	139.5836
0.88378906	143.56902
0.88623047	150.48326
0.8886719	160.74754
0.8911133	174.79681
0.8935547	192.49898
0.8959961	213.58772
0.8984375	237.36931
0.9008789	262.91345
0.9033203	289.0934
0.9057617	314.69672
0.9082031	338.47137
0.91064453	359.12155
0.91308594	375.3601
0.91552734	386.02237
0.91796875	390.2196
0.92041016	387.5009
0.92285156	377.952
0.92529297	362.2019
0.9277344	341.38412
0.9301758	317.1373
0.9326172	291.5626
0.9350586	266.94897
0.9375	245.36015
0.9399414	228.30547
0.9423828	216.60223
0.9448242	210.3976
0.9472656	209.24629
0.94970703	212.22153
0.95214844	218.09125
0.95458984	225.52669
0.95703125	233.27702
0.95947266	240.28477
0.96191406	245.74277
0.96435547	249.06178
0.9667969	249.76862
0.9692383	247.66113
0.9716797	242.96011
0.9741211	236.36345
0.9765625	228.20836
0.9790039	219.02846
0.9814453	209.50899
0.9838867	200.26463
0.9863281	191.78612
0.98876953	184.48358
0.99121094	178.6609
0.99365234	174.40944
0.99609375	171.59146
0.99853516	169.92462
1.0009766	169.09023
1.003418	168.7921
1.0058594	168.76224
1.0083008	168.78787
1.0107422	168.7814
1.0131836	168.74947
1.015625	168.66379
1.0180664	168.42288
1.0205078	167.94254
1.0229492	167.18933
1.0253906	166.13013
1.027832	164.7327
1.0302734	163.04745
1.0327148	161.26239
1.0351562	159.64601
1.0375977	158.42596
1.0400391	157.67798
1.0424805	157.40831
1.0449219	157.76431
1.0473633	158.91887
1.0498047	160.94405
1.0522461	163.8068
1.0546875	167.3805
1.0571289	171.15213
1.0595703	175.29149
1.0620117	179.54062
1.0644531	183.86398
1.0668945	188.3942
1.0693359	193.3085
1.0717773	198.7591
1.0742188	204.8108
1.0766602	211.40045
1.0791016	218.53809
1.081543	226.29115
1.0839844	234.60474
1.0864258	243.2438
1.0888672	251.81708
1.0913086	259.8663
1.09375	266.9689
1.0961914	272.76392
1.0986328	276.94876
1.1010742	279.31824
1.1035156	279.7939
1.105957	278.39474
1.1083984	275.17218
1.1108398	270.14612
1.1132812	263.33127
1.1157227	254.93134
1.1181641	245.3722
1.1206055	235.1821
1.1230469	224.91891
1.1254883	215.12943
1.1279297	206.3212
1.1303711	198.93419
1.1328125	193.31229
1.1352539	189.70706
1.1376953	188.73575
1.1401367	189.64526
1.1425781	192.66376
1.1450195	197.55232
1.1474609	203.97737
1.1499023	211.53949
1.1523438	219.80058
1.1547852	228.3308
1.1572266	236.7767
1.159668	244.85805
1.1621094	252.30333
1.1645508	258.79642
1.1669922	263.96487
1.1694336	267.45544
1.171875	269.02554
1.1743164	268.52304
1.1767578	265.87442
1.1791992	261.1458
1.1816406	254.61012
1.184082	246.74168
1.1865234	238.15086
1.1889648	229.49448
1.1914062	221.37857
1.1938477	214.2882
1.1962891	208.61504
1.1987305	204.68121
1.2011719	202.67162
1.2036133	202.583
1.2060547	204.23917
1.2084961	207.36156
1.2109375	211.6706
1.2133789	216.97298
1.2158203	223.19579
1.2182617	230.3579
1.2207031	238.51585
1.2231445	247.90034
1.2255859	258.64053
1.2280273	270.77487
1.2304688	284.18552
1.2329102	298.5579
1.2353516	313.42172
1.237793	328.22012
1.2402344	342.33395
1.2426758	355.12158
1.2451172	366.00015
1.2475586	374.5295
1.25	380.4568
1.2524414	383.72403
1.2548828	384.46692
1.2573242	383.008
1.2597656	379.80753
1.262207	375.36652
1.2646484	370.25543
1.2670898	365.18866
1.2695312	360.91388
1.2719727	358.11136
1.2744141	357.33447
1.2768555	358.97223
1.2792969	363.2409
1.2817383	370.20026
1.2841797	379.77548
1.2866211	391.76794
1.2890625	405.85135
1.2915039	421.5644
1.2939453	438.3335
1.2963867	455.5451
1.2988281	472.29074
1.3012695	488.6042
1.3037109	503.81723
1.3061523	517.6162
1.3085938	529.81995
1.3110352	540.38525
1.3134766	549.389
1.315918	556.9844
1.3183594	563.35583
1.3208008	568.6706
1.3232422	573.0344
1.3256836	576.4595
1.328125	578.84
1.3305664	579.9339
1.3330078	579.3712
1.3354492	576.7198
1.3378906	571.5745
1.340332	563.60986
1.3427734	552.5996
1.3452148	538.4346
1.3476562	521.1391
1.3500977	500.8809
1.3525391	477.99588
1.3549805	453.03622
1.3574219	426.78784
1.3598633	400.18173
1.3623047	374.17874
1.3647461	349.6956
1.3671875	327.5646
1.3696289	308.48434
1.3720703	292.95148
1.3745117	281.21722
1.3769531	273.31403
1.3793945	269.12634
1.3818359	269.3559
1.3842773	271.75476
1.3867188	276.76855
1.3891602	283.91144
1.3916016	292.69547
1.394043	302.6753
1.3964844	313.50583
1.3989258	324.98795
1.4013672	337.0588
1.4038086	349.74182
1.40625	363.10266
1.4086914	377.2152
1.4111328	392.11472
1.4135742	407.736
1.4160156	423.96786
1.418457	440.71295
1.4208984	457.80405
1.4233398	474.96997
1.4257812	491.84555
1.4282227	507.9991
1.4306641	522.97034
1.4331055	536.3252
1.4355469	547.6917
1.4379883	556.7682
1.4404297	563.3148
1.4428711	567.14874
1.4453125	568.1557
1.4477539	566.3271
1.4501953	561.8201
1.4526367	554.99164
1.4550781	546.37115
1.4575195	536.6029
1.4599609	526.3907
1.4624023	516.4942
1.4648438	507.7023
1.4672852	500.66898
1.4697266	496.02515
1.472168	494.254
1.4746094	495.6476
1.4770508	500.29688
1.4794922	508.0966
1.4819336	518.7519
1.484375	531.7911
1.4868164	546.584
1.4892578	562.3657
1.4916992	578.285
1.4941406	593.4918
1.496582	607.22144
1.4990234	618.8158
1.5014648	627.71313
1.5039062	633.4731
1.5063477	635.84985
1.5087891	634.83545
1.5112305	630.62213
1.5136719	623.52734
1.5161133	613.9009
1.5185547	602.22833
1.5209961	589.3381
1.5234375	576.1906
1.5258789	563.73737
1.5283203	552.8589
1.5307617	544.3426
1.5332031	538.8812
1.5356445	537.0448
1.5380859	539.21606
1.5405273	545.538
1.5429688	556.1123
1.5454102	570.1465
1.5478516	587.42175
1.550293	607.2862
1.5527344	628.987
1.5551758	651.73517
1.5576172	674.7464
1.5600586	697.2652
1.5625	718.5993
1.5649414	738.16144
1.5673828	755.50146
1.5698242	770.3226
1.5722656	782.4769
1.574707	791.93353
1.5771484	798.72644
1.5795898	802.9111
1.5820312	804.59686
1.5844727	803.9909
1.5869141	801.32654
1.5893555	796.8071
1.5917969	790.5864
1.5942383	782.7559
1.5966797	773.3535
1.5991211	762.39636
1.6015625	749.8995
1.6040039	735.8683
1.6064453	720.29877
1.6088867	703.2055
1.6113281	684.6631
1.6137695	664.8387
1.6162109	643.99817
1.6186523	622.48047
1.6210938	600.67053
1.6235352	579.3735
1.6259766	558.3402
1.628418	538.4569
1.6308594	520.24335
1.6333008	504.19037
1.6357422	490.74365
1.6381836	480.28632
1.640625	473.11993
1.6430664	469.4583
1.6455078	469.418
1.6479492	472.9887
1.6503906	480.0095
1.652832	490.19006
1.6552734	503.16608
1.6577148	518.5195
1.6601562	535.7629
1.6625977	554.3528
1.6650391	573.7376
1.6674805	593.3944
1.6699219	612.8276
1.6723633	631.5678
1.6748047	649.17816
1.6772461	665.26874
1.6796875	679.5146
1.6821289	691.66815
1.6845703	701.55963
1.6870117	709.0998
1.6894531	714.3016
1.6918945	717.2808
1.6943359	718.22516
1.6967773	717.3569
1.6992188	714.9004
1.7016602	711.06177
1.7041016	706.02106
1.706543	699.73755
1.7089844	692.7285
1.7114258	684.85785
1.7138672	676.16595
1.7163086	666.6718
1.71875	656.38385
1.7211914	645.30255
1.7236328	633.4265
1.7260742	620.7729
1.7285156	607.4075
1.730957	593.4727
1.7333984	579.1972
1.7358398	564.8839
1.7382812	550.87695
1.7407227	537.51996
1.7431641	525.1227
1.7456055	513.9506
1.7480469	504.24878
1.7504883	496.24176
1.7529297	490.08948
1.7553711	485.84082
1.7578125	483.40976
1.7602539	482.57523
1.7626953	483.01175
1.7651367	484.33942
1.7675781	486.15457
1.7700195	488.04318
1.7724609	489.60074
1.7749023	490.45877
1.7773438	490.30917
1.7797852	488.92657
1.7822266	486.1898
1.784668	482.09662
1.7871094	476.8037
1.7895508	470.39948
1.7919922	463.32083
1.7944336	455.9643
1.796875	448.76675
1.7993164	442.1795
1.8017578	436.63684
1.8041992	432.52203
1.8066406	430.13977
1.809082	429.6997
1.8115234	431.3055
1.8139648	434.94684
1.8164062	440.49982
1.8188477	447.7365
1.8212891	456.33994
1.8237305	465.9277
1.8261719	476.0788
1.8286133	486.36313
1.8310547	496.36328
1.8334961	505.68973
1.8359375	513.9949
1.8383789	520.9858
1.8408203	526.43396
1.8432617	530.1857
1.8457031	532.1679
1.8481445	532.3756
1.8505859	530.8381
1.8530273	527.56714
1.8554688	522.6085
1.8579102	516.1511
1.8603516	508.42303
1.862793	499.63397
1.8652344	489.9642
1.8676758	479.48355
1.8701172	468.58215
1.8725586	457.28586
1.875	445.75787
1.8774414	434.15897
1.8798828	422.63254
1.8823242	411.29803
1.8847656	400.2619
1.887207	389.63928
1.8896484	379.55896
1.8920898	370.1475
1.8945312	361.5089
1.8969727	353.71155
1.8994141	346.7843
1.9018555	340.7183
1.9042969	335.4844
1.9067383	331.05072
1.9091797	327.38077
1.9116211	324.4211
1.9140625	322.10226
1.9165039	320.353
1.9189453	319.10684
1.9213867	318.297
1.9238281	317.85767
1.9262695	317.7386
1.9287109	317.91687
1.9311523	318.3919
1.9335938	319.17175
1.9360352	320.26917
1.9384766	321.71118
1.940918	323.54483
1.9433594	325.82556
1.9458008	328.59897
1.9482422	331.85046
1.9506836	335.74835
1.953125	340.31967
1.9555664	345.64587
1.9580078	351.80347
1.9604492	358.84543
1.9628906	366.80542
1.965332	375.72638
1.9677734	385.66577
1.9702148	396.68512
1.9726562	408.8393
1.9750977	422.18512
1.9775391	436.76373
1.9799805	452.60028
1.9824219	469.70145
1.9848633	488.05835
1.9873047	507.6462
1.9897461	528.42065
1.9921875	550.3121
1.9946289	573.2211
1.9970703	597.0156
1.9995117	621.52924
2.0019531	646.56177
2.0043945	671.8811
2.006836	697.22485
2.0092773	722.2995
2.0117188	746.7799
2.0141602	770.30884
2.0166016	792.519
2.019043	813.04706
2.0214844	831.53766
2.0239258	847.6389
2.0263672	861.00586
2.0288086	871.32074
2.03125	877.8119
2.0336914	881.31866
2.0361328	881.2315
2.0385742	877.5218
2.0410156	870.24994
2.043457	859.5654
2.0458984	845.7008
2.0483398	828.9639
2.0507812	809.73645
2.0532227	788.46387
2.055664	765.6447
2.0581055	741.80426
2.0605469	717.47833
2.0629883	693.19604
2.0654297	669.4662
2.067871	646.76855
2.0703125	625.5443
2.072754	606.17676
2.0751953	588.96924
2.0776367	574.1331
2.0800781	561.789
2.0825195	551.97314
2.084961	544.643
2.0874023	539.68524
2.0898438	536.9249
2.0922852	536.13165
2.0947266	537.0241
2.097168	539.2812
2.0996094	542.5571
2.1020508	546.4945
2.1044922	550.7392
2.1069336	554.95996
2.109375	558.8616
2.1118164	562.4446
2.1142578	564.8854
2.1166992	566.3077
2.1191406	566.55634
2.121582	565.5137
2.1240234	563.10205
2.1264648	559.2895
2.1289062	554.09796
2.1313477	547.5907
2.133789	539.8574
2.1362305	530.99915
2.1386719	521.1316
2.1411133	510.40182
2.1435547	498.99246
2.145996	487.11023
2.1484375	474.97006
2.150879	462.77902
2.1533203	450.72476
2.1557617	438.97534
2.1582031	427.69208
2.1606445	417.03992
2.163086	407.18573
2.1655273	398.29065
2.1679688	390.49765
2.1704102	383.91525
2.1728516	378.60107
2.175293	374.5654
2.1777344	371.7951
2.1801758	370.2739
2.1826172	369.97586
2.1850586	370.84567
2.1875	372.78113
2.1899414	375.62872
2.1923828	379.32138
2.1948242	383.4113
2.1972656	387.84302
2.199707	392.4177
2.2021484	396.93408
2.2045898	401.19016
2.2070312	404.9949
2.2094727	408.17593
2.211914	410.58218
2.2143555	412.089
2.2167969	412.6052
2.2192383	412.0763
2.2216797	410.48328
2.224121	407.84317
2.2265625	404.21014
2.229004	399.66852
2.2314453	394.32037
2.2338867	388.29156
2.2363281	381.7585
2.2387695	374.93964
2.241211	368.0682
2.2436523	361.3699
2.2460938	355.04263
2.2485352	349.25735
2.2509766	344.19034
2.253418	340.02716
2.2558594	336.93402
2.2583008	335.0366
2.2607422	334.40906
2.2631836	335.07306
2.265625	337.01077
2.2680664	340.1838
2.2705078	344.538
2.2729492	350.0923
2.2753906	356.51917
2.277832	363.77414
2.2802734	371.68402
2.2827148	380.0495
2.2851562	388.67227
2.2875977	397.37827
2.290039	406.0144
2.2924805	414.4388
2.2949219	422.51614
2.2973633	430.1215
2.2998047	437.1453
2.302246	443.49524
2.3046875	449.1029
2.307129	453.9413
2.3095703	458.02847
2.3120117	461.41263
2.3144531	464.1566
2.3168945	466.3262
2.319336	467.98508
2.3217773	469.2061
2.3242188	470.08932
2.3266602	470.7488
2.3291016	471.286
2.331543	471.78076
2.3339844	472.31085
2.3364258	472.9605
2.3388672	473.80142
2.3413086	474.87134
2.34375	476.172
2.3461914	477.69635
2.3486328	479.4433
2.3510742	481.4068
2.3535156	483.56235
2.355957	485.8519
2.3583984	488.15244
2.3608398	490.387
2.3632812	492.41922
2.3657227	494.11267
2.368164	495.35464
2.3706055	496.0556
2.3730469	496.12897
2.3754883	495.48407
2.3779297	494.026
2.380371	491.65808
2.3828125	488.29404
2.385254	483.88257
2.3876953	478.41534
2.3901367	471.9115
2.3925781	464.39816
2.3950195	455.8966
2.397461	446.4244
2.3999023	436.03485
2.4023438	424.83517
2.4047852	412.96533
2.4072266	400.57416
2.409668	387.8068
2.4121094	374.79364
2.4145508	361.65018
2.4169922	348.4963
2.4194336	335.47412
2.421875	322.7411
2.4243164	310.45474
2.4267578	298.75845
2.4291992	287.76797
2.4316406	277.56128
2.434082	268.18576
2.4365234	259.81354
2.4389648	252.30315
2.4414062	245.78908
2.4438477	240.31094
2.446289	235.89053
2.4487305	232.5184
2.4511719	230.15388
2.4536133	228.74153
2.4560547	228.23354
2.458496	228.59157
2.4609375	229.77635
2.463379	231.738
2.4658203	234.40971
2.4682617	237.70511
2.4707031	241.52126
2.4731445	245.75034
2.475586	250.29857
2.4780273	255.09402
2.4804688	260.07718
2.4829102	265.18613
2.4853516	270.34116
2.487793	275.43152
2.4902344	280.38553
2.4926758	285.18253
2.4951172	289.8143
2.4975586	294.27118
2.5	298.53772
2.5024414	302.5929
2.5048828	306.41306
2.5073242	309.9797
2.5097656	313.29288
2.512207	316.3726
2.5146484	319.25015
2.5170898	321.88678
2.5195312	324.45056
2.5219727	326.9081
2.524414	329.2848
2.5268555	331.59387
2.5292969	333.85306
2.5317383	336.09256
2.5341797	338.34274
2.536621	340.62378
2.5390625	342.93912
2.541504	345.27707
2.5439453	347.62677
2.5463867	349.98425
2.5488281	352.34348
2.5512695	354.69138
2.553711	357.00882
2.5561523	359.27365
2.5585938	361.46158
2.5610352	363.54657
2.5634766	365.50275
2.565918	367.3023
2.5683594	368.9096
2.5708008	370.28445
2.5732422	371.40146
2.5756836	372.25433
2.578125	372.84167
2.5805664	373.1553
2.5830078	373.17935
2.5854492	372.89795
2.5878906	372.30283
2.590332	371.39444
2.5927734	370.18042
2.5952148	368.67157
2.5976562	366.85095
2.6000977	364.7415
2.602539	362.33905
2.6049805	359.6327
2.6074219	356.61597
2.6098633	353.29318
2.6123047	349.6754
2.614746	345.77405
2.6171875	341.59753
2.619629	337.15326
2.6220703	332.45282
2.6245117	327.5154
2.6269531	322.36554
2.6293945	317.0314
2.631836	311.54843
2.6342773	305.9637
2.6367188	300.33307
2.6391602	294.71542
2.6416016	289.1682
2.644043	283.75433
2.6464844	278.54968
2.6489258	273.64267
2.6513672	269.12708
2.6538086	265.09537
2.65625	261.63486
2.6586914	258.82645
2.6611328	256.74448
2.6635742	255.45596
2.6660156	255.02203
2.668457	255.50214
2.6708984	256.9513
2.6733398	259.40897
2.6757812	262.8867
2.6782227	267.37137
2.680664	272.8704
2.6831055	279.29135
2.6855469	286.62732
2.6879883	294.83087
2.6904297	303.83765
2.692871	313.56198
2.6953125	323.9003
2.697754	334.7472
2.7001953	346.0072
2.7026367	357.59027
2.7050781	369.40445
2.7075195	381.3531
2.709961	393.3361
2.7124023	405.25418
2.7148438	417.01758
2.7172852	428.55316
2.7197266	439.80954
2.722168	450.75128
2.7246094	461.3552
2.7270508	471.60794
2.7294922	481.50482
2.7319336	491.04916
2.734375	500.25195
2.7368164	509.13208
2.7392578	517.71906
2.7416992	526.0552
2.7441406	534.1926
2.746582	542.18524
2.7490234	550.08044
2.7514648	557.92194
2.7539062	565.7619
2.7563477	573.6585
2.758789	581.65405
2.7612305	589.5905
2.7636719	597.87665
2.7661133	606.3352
2.7685547	614.96967
2.770996	623.7807
2.7734375	632.7642
2.775879	641.90796
2.7783203	651.18854
2.7807617	660.57104
2.7832031	670.01135
2.7856445	679.45844
2.788086	688.853
2.7905273	698.1248
2.7929688	707.1996
2.7954102	716.0105
2.7978516	724.5019
2.800293	732.62
2.8027344	740.30566
2.8051758	747.4949
2.8076172	754.12463
2.8100586	760.14075
2.8125	765.5019
2.8149414	770.1804
2.8173828	774.15826
2.8198242	777.4204
2.8222656	779.95215
2.824707	781.74725
2.8271484	782.8178
2.8295898	783.19244
2.8320312	782.9069
2.8344727	781.9964
2.836914	780.4973
2.8393555	778.4446
2.8417969	775.7931
2.8442383	772.82294
2.8466797	769.4884
2.849121	765.8689
2.8515625	762.042
2.854004	758.0744
2.8564453	754.0226
2.8588867	749.94617
2.8613281	745.9148
2.8637695	741.99976
2.866211	738.2629
2.8686523	734.7545
2.8710938	731.51764
2.8735352	728.5918
2.8759766	726.0122
2.878418	723.8126
2.8808594	722.02673
2.8833008	720.6849
2.8857422	719.80884
2.8881836	719.40845
2.890625	719.48505
2.8930664	720.03815
2.8955078	721.06976
2.8979492	722.5847
2.9003906	724.5865
2.902832	727.07227
2.9052734	730.0275
2.9077148	733.42847
2.9101562	737.25244
2.9125977	741.48694
2.915039	746.1265
2.9174805	751.16003
2.9199219	756.5662
2.9223633	762.30524
2.9248047	768.34
2.927246	774.64276
2.9296875	781.1763
2.932129	787.9095
2.9345703	794.8158
2.9370117	801.86847
2.9394531	809.0353
2.9418945	816.27356
2.944336	823.52637
2.9467773	830.7274
2.9492188	837.8163
2.9516602	844.747
2.9541016	851.48254
2.956543	857.98157
2.9589844	864.1894
2.9614258	870.0358
2.9638672	875.4464
2.9663086	880.36035
2.96875	884.734
2.9711914	888.5322
2.9736328	891.72
2.9760742	894.2551
2.9785156	896.086
2.980957	897.1533
2.9833984	897.40234
2.9858398	896.7958
2.9882812	895.31573
2.9907227	892.9566
2.993164	889.7059
2.9956055	885.5614
2.9980469	880.4741
3.0004883	874.39996
3.0029297	867.3329
3.005371	859.2909
3.0078125	850.3359
3.010254	840.46265
3.0126953	829.69824
3.0151367	818.05536
3.0175781	805.5366
3.0200195	792.15533
3.022461	777.9501
3.0249023	762.97644
3.0273438	747.2921
3.0297852	730.94995
3.0322266	713.9909
3.034668	696.4513
3.0371094	678.37555
3.0395508	659.82623
3.0419922	640.88226
3.0444336	621.6287
3.046875	602.1463
3.0493164	582.5032
3.0517578	562.75696
3.0541992	542.9697
3.0566406	523.22046
3.059082	503.60043
3.0615234	484.20215
3.0639648	465.11185
3.0664062	446.40527
3.0688477	428.1458
3.071289	410.3903
3.0737305	393.20187
3.0761719	376.646
3.0786133	360.79193
3.0810547	345.69885
3.083496	331.40802
3.0859375	318.1521
3.088379	305.55045
3.0908203	293.82367
3.0932617	282.9907
3.0957031	273.07062
3.0981445	264.0747
3.100586	256.0001
3.1030273	248.8278
3.1054688	242.52557
3.1079102	237.05891
3.1103516	232.4002
3.112793	228.52847
3.1152344	225.4185
3.1176758	223.03043
3.1201172	221.307
3.1225586	220.1844
3.125	219.60931
3.1274414	219.54285
3.1298828	219.95076
3.1323242	220.7922
3.1347656	222.01392
3.137207	223.55458
3.1396484	225.35936
3.1420898	227.38855
3.1445312	229.61198
3.1469727	232.00024
3.149414	234.5191
3.1518555	237.13132
3.1542969	239.79965
3.1567383	242.49133
3.1591797	245.17992
3.161621	247.84361
3.1640625	250.46419
3.166504	253.04865
3.1689453	255.53198
3.1713867	257.9276
3.1738281	260.22284
3.1762695	262.40262
3.178711	264.44952
3.1811523	266.34714
3.1835938	268.08286
3.1860352	269.6464
3.1884766	271.0283
3.190918	272.21954
3.1933594	273.2127
3.1958008	274.00146
3.1982422	274.57944
3.2006836	274.93842
3.203125	275.06967
3.2055664	274.9704
3.2080078	274.64526
3.2104492	274.1021
3.2128906	273.3446
3.215332	272.36493
3.2177734	271.16275
3.2202148	269.75613
3.2226562	268.17075
3.2250977	266.4331
3.227539	264.5678
3.2299805	262.5958
3.2324219	260.52948
3.2348633	258.3906
3.2373047	256.2138
3.239746	254.04483
3.2421875	251.93086
3.244629	249.9125
3.2470703	248.01001
3.2495117	246.25818
3.2519531	244.68977
3.2543945	243.33704
3.256836	242.24094
3.2592773	241.44228
3.2617188	240.97238
3.2641602	240.8444
3.2666016	241.07253
3.269043	241.68549
3.2714844	242.71297
3.2739258	244.17758
3.2763672	246.09042
3.2788086	248.4495
3.28125	251.24577
3.2836914	254.47163
3.2861328	258.1199
3.2885742	262.17914
3.2910156	266.6331
3.293457	271.46228
3.2958984	276.6434
3.2983398	282.14636
3.3007812	287.93274
3.3032227	293.9611
3.305664	300.1925
3.3081055	306.5937
3.3105469	313.12625
3.3129883	319.75027
3.3154297	326.4167
3.317871	333.07373
3.3203125	339.67795
3.322754	346.19513
3.3251953	352.595
3.3276367	358.84763
3.3300781	364.8964
3.3325195	370.75156
3.334961	376.3652
3.3374023	381.70773
3.3398438	386.7533
3.3422852	391.4817
3.3447266	395.87973
3.347168	399.93854
3.3496094	403.65137
3.3520508	407.01047
3.3544922	410.0054
3.3569336	412.62592
3.359375	414.869
3.3618164	416.7387
3.3642578	418.2411
3.3666992	419.38217
3.3691406	420.16925
3.371582	420.61172
3.3740234	420.7195
3.3764648	420.50208
3.3789062	419.9698
3.3813477	419.13583
3.383789	418.01508
3.3862305	416.6191
3.3886719	414.95895
3.3911133	413.04276
3.3935547	410.88733
3.395996	408.51428
3.3984375	405.9451
3.400879	403.19476
3.4033203	400.27036
3.4057617	397.18222
3.4082031	393.95096
3.4106445	390.60806
3.413086	387.1732
3.4155273	383.66415
3.4179688	380.1007
3.4204102	376.49646
3.4228516	372.86118
3.425293	369.20938
3.4277344	365.5617
3.4301758	361.94
3.4326172	358.3624
3.4350586	354.84164
3.4375	351.3848
3.4399414	347.9941
3.4423828	344.6718
3.4448242	341.4249
3.4472656	338.26453
3.449707	335.20276
3.4521484	332.24655
3.4545898	329.39346
3.4570312	326.63336
3.4594727	323.9557
3.461914	321.35526
3.4643555	318.8276
3.4667969	316.3761
3.4692383	313.98782
3.4716797	311.64426
3.474121	309.32275
3.4765625	307.00443
3.479004	304.67773
3.4814453	302.3364
3.4838867	299.9755
3.4863281	297.5867
3.4887695	295.1536
3.491211	292.67798
3.4936523	290.10056
3.4960938	287.42975
3.4985352	284.66055
3.5009766	281.79477
3.503418	278.83575
3.5058594	275.7846
3.5083008	272.6401
3.5107422	269.40112
3.5131836	266.06873
3.515625	262.64853
3.5180664	259.15152
3.5205078	255.59267
3.5229492	251.98657
3.5253906	248.34283
3.527832	244.66809
3.5302734	240.9741
3.5327148	237.28055
3.5351562	233.6103
3.5375977	229.9844
3.540039	226.41919
3.5424805	222.92386
3.5449219	219.50368
3.5473633	216.17024
3.5498047	212.93808
3.552246	209.8252
3.5546875	206.84718
3.557129	204.01234
3.5595703	201.31747
3.5620117	198.75363
3.5644531	196.32
3.5668945	194.02405
3.569336	191.87393
3.5717773	189.9058
3.5742188	188.04031
3.5766602	186.30965
3.5791016	184.69977
3.581543	183.194
3.5839844	181.78064
3.5864258	180.45412
3.5888672	179.21117
3.5913086	178.0473
3.59375	176.95401
3.5961914	175.9159
3.5986328	174.91171
3.6010742	173.92532
3.6035156	172.9517
3.605957	171.99174
3.6083984	171.04701
3.6108398	170.11646
3.6132812	169.19315
3.6157227	168.2613
3.618164	167.30739
3.6206055	166.3328
3.6230469	165.34811
3.6254883	164.36505
3.6279297	163.39313
3.630371	162.43658
3.6328125	161.49335
3.635254	160.55775
3.6376953	159.6298
3.6401367	158.71886
3.6425781	157.83916
3.6450195	157.00507
3.647461	156.22758
3.6499023	155.51053
3.6523438	154.8424
3.6547852	154.21362
3.6572266	153.65282
3.659668	153.15564
3.6621094	152.73508
3.6645508	152.40105
3.6669922	152.15672
3.6694336	151.99179
3.671875	151.89804
3.6743164	151.88084
3.6767578	151.9477
3.6791992	152.10414
3.6816406	152.35141
3.684082	152.68263
3.6865234	153.08076
3.6889648	153.53696
3.6914062	154.05225
3.6938477	154.62997
3.696289	155.2725
3.6987305	155.97923
3.7011719	156.74522
3.7036133	157.55582
3.7060547	158.3942
3.708496	159.25215
3.7109375	160.12956
3.713379	161.02837
3.7158203	161.94942
3.7182617	162.89073
3.7207031	163.84612
3.7231445	164.80222
3.725586	165.74155
3.7280273	166.65706
3.7304688	167.55032
3.7329102	168.42455
3.7353516	169.28806
3.737793	170.11415
3.7402344	170.91269
3.7426758	171.67651
3.7451172	172.39146
3.7475586	173.04529
3.75	173.63599
3.7524414	174.16508
3.7548828	174.63374
3.7573242	175.0409
3.7597656	175.38129
3.762207	175.64217
3.7646484	175.81097
3.7670898	175.88606
3.7695312	175.86969
3.7719727	175.76321
3.774414	175.5649
3.7768555	175.26755
3.7792969	174.85867
3.7817383	174.33765
3.7841797	173.70459
3.786621	172.9627
3.7890625	172.11404
3.791504	171.15784
3.7939453	170.08969
3.7963867	168.90514
3.7988281	167.60443
3.8012695	166.19194
3.803711	164.67342
3.8061523	163.05402
3.8085938	161.33655
3.8110352	159.52052
3.8134766	157.60442
3.815918	155.59824
3.8183594	153.50072
3.8208008	151.31938
3.8232422	149.06303
3.8256836	146.74007
3.828125	144.35687
3.8305664	141.91692
3.8330078	139.42162
3.8354492	136.87512
3.8378906	134.28549
3.840332	131.66151
3.8427734	129.00981
3.8452148	126.334
3.8476562	123.63717
3.8500977	120.92489
3.852539	118.20495
3.8549805	115.48448
3.8574219	112.7688
3.8598633	110.05989
3.8623047	107.36403
3.864746	104.68476
3.8671875	102.02798
3.869629	99.39882
3.8720703	96.80013
3.8745117	94.23275
3.8769531	91.697716
3.8793945	89.19782
3.881836	86.73695
3.8842773	84.31897
3.8867188	81.94704
3.8891602	79.62376
3.8916016	77.35005
3.894043	75.12546
3.8964844	72.97165
3.8989258	70.84659
3.9013672	68.77187
3.9038086	66.74935
3.90625	64.78149
3.9086914	62.870003
3.9111328	61.014374
3.9135742	59.212173
3.9160156	57.46205
3.918457	55.765224
3.9208984	54.124214
3.9233398	52.541428
3.9257812	51.018185
3.9282227	49.55348
3.930664	48.14384
3.9331055	46.785915
3.9355469	45.47993
3.9379883	44.228333
3.9404297	43.034996
3.942871	41.90093
3.9453125	40.824535
3.947754	39.80134
3.9501953	38.82695
3.9526367	37.900524
3.9550781	37.023766
3.9575195	36.198444
3.959961	35.4248
3.9624023	34.700855
3.9648438	34.022808
3.9672852	33.387524
3.9697266	32.794228
3.972168	32.24401
3.9746094	31.738216
3.9770508	31.276814
3.9794922	30.867853
3.9819336	30.484838
3.984375	30.13656
3.9868164	29.819729
3.9892578	29.534035
3.9916992	29.280266
3.9941406	29.058537
3.996582	28.86717
3.9990234	28.701925
4.001465	28.557278
4.0039062	28.430428
4.0063477	28.321014
4.008789	28.229008
4.0112305	28.15365
4.013672	28.093023
4.0161133	28.043882
4.0185547	28.003422
4.020996	27.968918
4.0234375	27.938616
4.025879	27.911173
4.0283203	27.885387
4.0307617	27.859962
4.033203	27.833143
4.0356445	27.802406
4.038086	27.764948
4.0405273	27.719007
4.0429688	27.664005
4.04541	27.599958
4.0478516	27.527035
4.050293	27.445082
4.0527344	27.352695
4.055176	27.246086
4.057617	27.123606
4.0600586	26.98975
4.0625	26.8397
4.0649414	26.676313
4.067383	26.500767
4.069824	26.313868
4.0722656	26.1154
4.074707	25.902943
4.0771484	25.675892
4.07959	25.43604
4.0820312	25.185593
4.0844727	24.92644
4.086914	24.659882
4.0893555	24.38623
4.091797	24.104237
4.0942383	23.812998
4.0966797	23.51466
4.099121	23.210884
4.1015625	22.903288
4.104004	22.592865
4.1064453	22.280003
4.1088867	21.96482
4.111328	21.647694
4.1137695	21.329205
4.116211	21.009726
4.1186523	20.68942
4.1210938	20.368626
4.123535	20.048046
4.1259766	19.728525
4.128418	19.410877
4.1308594	19.095638
4.133301	18.782661
4.135742	18.470657
4.1381836	18.158495
4.140625	17.849531
4.1430664	17.539215
4.145508	17.229803
4.147949	16.921867
4.1503906	16.615616
4.152832	16.310776
4.1552734	16.006565
4.157715	15.701977
4.1601562	15.396453
4.1625977	15.090137
4.165039	14.783668
4.1674805	14.477704
4.169922	14.172521
4.1723633	13.867369
4.1748047	13.560291
4.177246	13.251191
4.1796875	12.940746
4.182129	12.630193
4.1845703	12.320581
4.1870117	12.012352
4.189453	11.704764
4.1918945	11.396157
4.194336	11.086413
4.1967773	10.776734
4.1992188	10.468542
4.20166	10.163019
4.2041016	9.860672
4.206543	9.560941
4.2089844	9.262586
4.211426	8.965772
4.213867	8.671728
4.2163086	8.381776
4.21875	8.096896
4.2211914	7.818788
4.223633	7.543656
4.226074	7.2734966
4.2285156	7.007698
4.230957	6.746778
4.2333984	6.49173
4.23584	6.2435045
4.2382812	6.0027146
4.2407227	5.769184
4.243164	5.54162
4.2456055	5.3198295
4.248047	5.104613
4.2504883	4.8968296
4.2529297	4.6969724
4.255371	4.5051737
4.2578125	4.320384
4.260254	4.1417193
4.2626953	3.969397
4.2651367	3.8039865
4.267578	3.6459315
4.2700195	3.495311
4.272461	3.351668
4.2749023	3.214089
4.2773438	3.0819833
4.279785	2.955359
4.2822266	2.8343923
4.284668	2.7192006
4.2871094	2.60974
4.289551	2.505767
4.291992	2.4068139
4.2944336	2.3122802
4.296875	2.221727
4.2993164	2.1350112
4.301758	2.0521452
4.304199	1.9753323
4.3066406	1.8997718
4.309082	1.8277059
4.3115234	1.7588832
4.313965	1.6928612
4.3164062	1.6292046
4.3188477	1.5677714
4.321289	1.5086457
4.3237305	1.4519253
4.326172	1.3975863
4.3286133	1.3453898
4.3310547	1.2949078
4.333496	1.2459143
4.3359375	1.1983799
4.338379	1.1523956
4.3408203	1.1080178
4.3432617	1.0652066
4.345703	1.0238228
4.3481445	0.9836916
4.350586	0.9447043
4.3530273	0.9068473
4.3554688	0.87015355
4.35791	0.834654
4.3603516	0.8003289
4.362793	0.7670996
4.3652344	0.73486745
4.367676	0.7035888
4.370117	0.67328143
4.3725586	0.6439824
4.375	0.61571485
4.3774414	0.58847207
4.379883	0.56221926
4.382324	0.53691816
4.3847656	0.51290876
4.387207	0.4894606
4.3896484	0.4669349
4.39209	0.4453161
4.3945312	0.42456844
4.3969727	0.40465623
4.399414	0.3855686
4.4018555	0.36730963
4.404297	0.34988675
4.4067383	0.33329493
4.4091797	0.31749615
4.411621	0.30243635
4.4140625	0.28805196
4.416504	0.2743275
4.4189453	0.26127276
4.4213867	0.24889247
4.423828	0.23716506
4.4262695	0.22603719
4.428711	0.21545044
4.4311523	0.20537712
4.4335938	0.19581577
4.436035	0.18676835
4.4384766	0.17822126
4.440918	0.17014357
4.4433594	0.1624967
4.445801	0.15524885
4.448242	0.14838193
4.4506836	0.14188702
4.453125	0.13575396
4.4555664	0.1299604
4.458008	0.1244693
4.460449	0.1192456
4.4628906	0.11427369
4.465332	0.10970221
4.4677734	0.10521482
4.470215	0.10096083
4.4726562	0.09693148
4.4750977	0.093107685
4.477539	0.089461654
4.4799805	0.08597118
4.482422	0.08262969
4.4848633	0.079438336
4.4873047	0.07639773
4.489746	0.0735018
4.4921875	0.070739366
4.494629	0.068089604
4.4970703	0.06553855
4.4995117	0.06308339
4.501953	0.060726482
4.5043945	0.058469005
4.506836	0.056307092
4.5092773	0.054229982
4.5117188	0.052223675
4.51416	0.050280977
4.5166016	0.048402943
4.519043	0.046593558
4.5214844	0.04485467
4.523926	0.043183524
4.526367	0.041573036
4.5288086	0.04001568
4.53125	0.038508277
4.5336914	0.037051436
4.536133	0.03564619
4.538574	0.034291863
4.5410156	0.032985732
4.543457	0.03172457
4.5458984	0.030525655
4.54834	0.029351257
4.5507812	0.028219031
4.5532227	0.027128458
4.555664	0.026079364
4.5581055	0.025071884
4.560547	0.024106385
4.5629883	0.023182927
4.5654297	0.0223007
4.567871	0.021457152
4.5703125	0.020649157
4.572754	0.019872975
4.5751953	0.01912779
4.5776367	0.018414628
4.580078	0.017734932
4.5825195	0.01708936
4.584961	0.016476613
4.5874023	0.015892966
4.5898438	0.015334548
4.592285	0.014800239
4.5947266	0.014290397
4.597168	0.013805389
4.5996094	0.013344751
4.602051	0.012906726
4.604492	0.012488591
4.6069336	0.012088185
4.609375	0.011704781
4.6118164	0.011338463
4.614258	0.01098929
4.616699	0.010656778
4.6191406	0.010339468
4.621582	0.010035129
4.6240234	0.009742116
4.626465	0.009460192
4.6289062	0.009200902
4.6313477	0.008941549
4.633789	0.008693535
4.6362305	0.008456574
4.638672	0.008229381
4.6411133	0.008009645
4.6435547	0.0077961604
4.645996	0.0075892233
4.6484375	0.007389892
4.650879	0.0071984483
4.6533203	0.007014262
4.6557617	0.0068355566
4.658203	0.0066613923
4.6606445	0.0064922585
4.663086	0.006328953
4.6655273	0.006171878
4.6679688	0.0060204784
4.67041	0.0058726147
4.6728516	0.005727812
4.675293	0.005586784
4.6777344	0.005450244
4.680176	0.005318622
4.682617	0.005191979
4.6850586	0.0050700163
4.6875	0.0049520954
4.6899414	0.0048374664
4.692383	0.004725842
4.694824	0.00461733
4.6972656	0.0045121904
4.699707	0.0044107535
4.7021484	0.0043132943
4.70459	0.0042199036
4.7070312	0.004130142
4.7094727	0.0040438655
4.711914	0.0039594346
4.7143555	0.0038772237
4.716797	0.0037975088
4.7192383	0.0037206511
4.7216797	0.0036469346
4.724121	0.0035763793
4.7265625	0.0035087382
4.729004	0.0034428702
4.7314453	0.003378607
4.7338867	0.0033162727
4.736328	0.0032561745
4.7387695	0.0031984623
4.741211	0.003143033
4.7436523	0.0030894065
4.7460938	0.0030370338
4.748535	0.002985886
4.7509766	0.002936109
4.753418	0.0028878143
4.7558594	0.0028410284
4.758301	0.0027956276
4.760742	0.0027513646
4.7631836	0.0027079424
4.765625	0.002665171
4.7680664	0.002623006
4.770508	0.0025814434
4.772949	0.0025405055
4.7753906	0.0025002055
4.777832	0.002460542
4.7802734	0.0024214156
4.782715	0.0023825448
4.7851562	0.002343704
4.7875977	0.0023048844
4.790039	0.0022670678
4.7924805	0.002228489
4.794922	0.0021900549
4.7973633	0.0021518057
4.7998047	0.002113679
4.802246	0.0020754507
4.8046875	0.0020369284
4.807129	0.0019981975
4.8095703	0.001959331
4.8120117	0.0019204343
4.814453	0.0018815655
4.8168945	0.0018427047
4.819336	0.0018037098
4.8217773	0.0017644721
4.8242188	0.0017250195
4.82666	0.001685454
4.8291016	0.0016458712
4.831543	0.0016063502
4.8339844	0.0015668992
4.836426	0.001527499
4.838867	0.0014881107
4.8413086	0.0014487826
4.84375	0.0014095485
4.8461914	0.0013704968
4.848633	0.0013317053
4.851074	0.0012932451
4.8535156	0.0012551333
4.855957	0.0012173569
4.8583984	0.001179897
4.86084	0.0011427811
4.8632812	0.0011060877
4.8657227	0.0010699132
4.868164	0.0010343555
4.8706055	9.996716E-4
4.873047	9.653632E-4
4.8754883	9.317127E-4
4.8779297	8.986646E-4
4.880371	8.662236E-4
4.8828125	8.3446986E-4
4.885254	8.03494E-4
4.8876953	7.733642E-4
4.8901367	7.441011E-4
4.892578	7.1566366E-4
4.8950195	6.879713E-4
4.897461	6.6100067E-4
4.8999023	6.3480425E-4
4.9023438	6.0945365E-4
4.904785	5.849876E-4
4.9072266	5.614297E-4
4.909668	5.3874205E-4
4.9121094	5.168387E-4
4.914551	4.956833E-4
4.916992	4.7528898E-4
4.9194336	4.5568275E-4
4.921875	4.3688354E-4
4.9243164	4.1888276E-4
4.926758	4.0161595E-4
4.929199	3.8503786E-4
4.9316406	3.691235E-4
4.934082	3.5388363E-4
4.9365234	3.3933626E-4
4.938965	3.2547856E-4
4.9414062	3.122682E-4
4.9438477	2.9962757E-4
4.946289	2.8752335E-4
4.9487305	2.7594276E-4
4.951172	2.6490737E-4
4.9536133	2.5476437E-4
4.9560547	2.4477087E-4
4.958496	2.3527913E-4
4.9609375	2.2624915E-4
4.963379	2.176279E-4
4.9658203	2.0940091E-4
4.9682617	2.0154743E-4
4.970703	1.940736E-4
4.9731445	1.8697535E-4
4.975586	1.8022447E-4
4.9780273	1.738014E-4
4.9804688	1.6770115E-4
4.98291	1.6191424E-4
4.9853516	1.564161E-4
4.987793	1.5118463E-4
4.9902344	1.4618906E-4
4.992676	1.4140047E-4
4.995117	1.368444E-4
4.9975586	1.3252527E-4


