
X-Axis: Frequency (hz)
Y-Axis: Fourier Amplitude (cm/s)
Number of Data Sets: 4


DATASET #1

Name: FAS H1 (cm/s)
Num Points: 2044
Info: 

X, Y Data:
0.009765625	0.5017585
0.012207031	0.6270633
0.014648438	0.7551145
0.017089844	0.8878922
0.01953125	1.0268371
0.021972656	1.1721976
0.024414062	1.3230284
0.026855469	1.4774344
0.029296875	1.6337482
0.03173828	1.792056
0.034179688	1.9554976
0.036621094	2.1303346
0.0390625	2.323841
0.041503906	2.5410557
0.043945312	2.7813232
0.04638672	3.0361063
0.048828125	3.2890034
0.05126953	3.5184317
0.053710938	3.7028465
0.056152344	3.828208
0.05859375	3.897731
0.061035156	3.9424555
0.06347656	4.029215
0.06591797	4.254632
0.068359375	4.713667
0.07080078	5.4560866
0.07324219	6.4704022
0.075683594	7.702831
0.078125	9.082459
0.080566406	10.537301
0.08300781	12.00411
0.08544922	13.434616
0.087890625	14.798598
0.09033203	16.081833
0.09277344	17.28071
0.095214844	18.396778
0.09765625	19.434593
0.10009766	20.40172
0.10253906	21.30687
0.10498047	22.152483
0.10742188	22.925034
0.10986328	23.59155
0.11230469	24.108198
0.11474609	24.437239
0.1171875	24.560568
0.11962891	24.48011
0.12207031	24.205332
0.12451172	23.740295
0.12695312	23.083494
0.12939453	22.243355
0.13183594	21.257664
0.13427734	20.202696
0.13671875	19.19036
0.13916016	18.365778
0.14160156	17.912968
0.14404297	18.04314
0.14648438	18.923294
0.14892578	20.567888
0.15136719	22.80259
0.1538086	25.342134
0.15625	27.902002
0.1586914	30.26656
0.16113281	32.301746
0.16357422	33.93454
0.16601562	35.129818
0.16845703	35.886826
0.17089844	36.255596
0.17333984	36.35316
0.17578125	36.3519
0.17822266	36.431576
0.18066406	36.71726
0.18310547	37.245235
0.18554688	37.980373
0.18798828	38.863663
0.19042969	39.847973
0.1928711	40.902397
0.1953125	41.998127
0.1977539	43.10282
0.20019531	44.193848
0.20263672	45.276875
0.20507812	46.388798
0.20751953	47.576378
0.20996094	48.86332
0.21240234	50.230335
0.21484375	51.621895
0.21728516	52.973194
0.21972656	54.236282
0.22216797	55.388947
0.22460938	56.426968
0.22705078	57.35328
0.22949219	58.179108
0.2319336	58.937958
0.234375	59.697834
0.2368164	60.55225
0.23925781	61.58482
0.24169922	62.82449
0.24414062	64.22385
0.24658203	65.677086
0.24902344	67.06502
0.25146484	68.29524
0.25390625	69.31372
0.25634766	70.09188
0.25878906	70.613235
0.26123047	70.882935
0.26367188	70.961555
0.26611328	70.99556
0.2685547	71.20765
0.2709961	71.829315
0.2734375	73.00094
0.2758789	74.70048
0.2783203	76.75047
0.28076172	78.89334
0.28320312	80.8799
0.28564453	82.52205
0.28808594	83.70007
0.29052734	84.3478
0.29296875	84.44471
0.29541016	84.0273
0.29785156	83.205925
0.30029297	82.15768
0.30273438	81.07464
0.30517578	80.07946
0.3076172	79.1557
0.3100586	78.145424
0.3125	76.82258
0.3149414	74.996025
0.3173828	72.57882
0.31982422	69.592735
0.32226562	66.124016
0.32470703	62.277397
0.32714844	58.16706
0.32958984	53.943863
0.33203125	49.815487
0.33447266	46.013687
0.33691406	42.709145
0.33935547	39.939465
0.34179688	37.629257
0.34423828	35.702484
0.3466797	34.1977
0.3491211	33.300087
0.3515625	33.277565
0.3540039	34.368332
0.3564453	36.678917
0.35888672	40.13776
0.36132812	44.524426
0.36376953	49.55706
0.36621094	54.982613
0.36865234	60.603783
0.37109375	66.21784
0.37353516	71.51767
0.37597656	76.05444
0.37841797	79.32451
0.38085938	80.95126
0.38330078	80.86124
0.3857422	79.35447
0.3881836	77.022446
0.390625	74.55329
0.3930664	72.54614
0.3955078	71.454544
0.39794922	71.63775
0.40039062	73.34895
0.40283203	76.56668
0.40527344	80.83642
0.40771484	85.35087
0.41015625	89.24465
0.41259766	91.88501
0.41503906	92.99784
0.41748047	92.61318
0.41992188	90.91711
0.42236328	88.1256
0.4248047	84.4538
0.4272461	80.154274
0.4296875	75.528625
0.4321289	70.84356
0.4345703	66.19253
0.43701172	61.435604
0.43945312	56.304813
0.44189453	50.60676
0.44433594	44.36644
0.44677734	37.82746
0.44921875	31.361706
0.45166016	25.442732
0.45410156	20.824854
0.45654297	18.731071
0.45898438	20.028389
0.46142578	23.900017
0.4638672	28.775242
0.4663086	33.55746
0.46875	37.679005
0.4711914	40.85625
0.4736328	42.911655
0.47607422	43.718216
0.47851562	43.243908
0.48095703	41.60281
0.48339844	39.014313
0.48583984	35.66612
0.48828125	31.611614
0.49072266	26.882763
0.49316406	21.907757
0.49560547	18.195883
0.49804688	18.29885
0.5004883	22.686342
0.5029297	29.07412
0.5053711	35.703587
0.5078125	41.99589
0.5102539	48.043736
0.5126953	54.109917
0.5151367	60.261623
0.5175781	66.27345
0.52001953	71.79007
0.52246094	76.5682
0.52490234	80.616325
0.52734375	84.148
0.52978516	87.37963
0.53222656	90.313515
0.53466797	92.68517
0.5371094	94.13823
0.5395508	94.4991
0.5419922	93.93919
0.5444336	92.89035
0.546875	91.76475
0.5493164	90.708725
0.5517578	89.60622
0.5541992	88.27935
0.5566406	86.61271
0.55908203	84.43657
0.56152344	81.31974
0.56396484	76.56535
0.56640625	69.49471
0.56884766	59.812366
0.57128906	47.83291
0.57373047	34.667248
0.5761719	23.337074
0.5786133	22.027945
0.5810547	33.470432
0.5834961	49.491924
0.5859375	65.9016
0.5883789	80.94245
0.5908203	93.77073
0.5932617	104.25388
0.5957031	112.7912
0.59814453	119.94995
0.60058594	126.14669
0.60302734	131.64856
0.60546875	136.84076
0.60791016	142.3725
0.61035156	148.88176
0.61279297	156.4811
0.6152344	164.5408
0.6176758	172.0166
0.6201172	177.9901
0.6225586	181.94914
0.625	183.68015
0.6274414	183.01103
0.6298828	179.73366
0.6323242	173.80788
0.6347656	165.63737
0.63720703	156.10779
0.63964844	146.26854
0.64208984	136.87102
0.64453125	128.16333
0.64697266	120.11497
0.64941406	112.75056
0.65185547	106.11541
0.6542969	99.84743
0.6567383	92.894646
0.6591797	83.83695
0.6616211	71.58777
0.6640625	55.900234
0.6665039	37.39185
0.6689453	17.27306
0.6713867	6.0213003
0.6738281	25.900116
0.67626953	46.449574
0.67871094	66.00379
0.68115234	83.57944
0.68359375	98.00244
0.68603516	108.21547
0.68847656	113.65675
0.69091797	114.44904
0.6933594	111.29661
0.6958008	105.16212
0.6982422	96.93228
0.7006836	87.280365
0.703125	76.77135
0.7055664	66.04879
0.7080078	55.897343
0.7104492	47.120438
0.7128906	40.361732
0.71533203	36.0442
0.71777344	34.416054
0.72021484	35.499767
0.72265625	38.968
0.72509766	44.190075
0.72753906	50.356937
0.72998047	56.520473
0.7324219	61.668766
0.7348633	64.975945
0.7373047	66.1601
0.7397461	65.73372
0.7421875	64.90035
0.7446289	64.982216
0.7470703	66.70385
0.7495117	70.04317
0.7519531	74.76192
0.75439453	80.80828
0.75683594	88.08958
0.75927734	96.03391
0.76171875	103.56671
0.76416016	109.53838
0.76660156	113.18968
0.76904297	114.33369
0.7714844	113.22659
0.7739258	110.28924
0.7763672	105.88829
0.7788086	100.2892
0.78125	93.73447
0.7836914	86.51161
0.7861328	78.92565
0.7885742	71.19319
0.7910156	63.349422
0.79345703	55.254387
0.79589844	46.724686
0.79833984	37.73492
0.80078125	28.586487
0.80322266	19.952711
0.80566406	12.77018
0.80810547	7.9385514
0.8105469	5.494044
0.8129883	3.8949788
0.8154297	2.022044
0.8178711	3.548285
0.8203125	8.981934
0.8227539	16.781567
0.8251953	26.8653
0.8276367	38.701267
0.8300781	51.20293
0.83251953	63.041035
0.83496094	73.07154
0.83740234	80.65126
0.83984375	85.699356
0.84228516	88.515274
0.84472656	89.544525
0.84716797	89.33539
0.8496094	88.73236
0.8520508	89.02189
0.8544922	91.62337
0.8569336	97.34082
0.859375	105.89196
0.8618164	116.2339
0.8642578	127.20434
0.8666992	137.85103
0.8691406	147.4303
0.87158203	155.35999
0.87402344	161.2825
0.87646484	165.161
0.87890625	167.2469
0.88134766	167.87857
0.88378906	167.25935
0.88623047	165.40988
0.8886719	162.31168
0.8911133	158.04277
0.8935547	152.71481
0.8959961	146.26381
0.8984375	138.35553
0.9008789	128.57935
0.9033203	116.79738
0.9057617	103.32614
0.9082031	88.7681
0.91064453	73.62484
0.91308594	58.074955
0.91552734	42.255512
0.91796875	27.235031
0.92041016	17.89372
0.92285156	22.398869
0.92529297	33.578457
0.9277344	44.289474
0.9301758	52.853416
0.9326172	59.027313
0.9350586	62.753128
0.9375	63.828285
0.9399414	62.12569
0.9423828	58.040184
0.9448242	52.73758
0.9472656	47.884388
0.94970703	44.78293
0.95214844	43.522762
0.95458984	43.229485
0.95703125	43.12661
0.95947266	43.08087
0.96191406	43.371296
0.96435547	44.262474
0.9667969	45.829945
0.9692383	48.020058
0.9716797	50.70856
0.9741211	53.70768
0.9765625	56.805874
0.9790039	59.824615
0.9814453	62.59756
0.9838867	64.88936
0.9863281	66.38241
0.98876953	66.79567
0.99121094	66.041336
0.99365234	64.272675
0.99609375	61.782013
0.99853516	58.851204
1.0009766	55.698803
1.003418	52.554173
1.0058594	49.743782
1.0083008	47.667496
1.0107422	46.675457
1.0131836	46.954533
1.015625	48.47775
1.0180664	50.986652
1.0205078	54.02819
1.0229492	57.109024
1.0253906	59.9194
1.027832	62.464233
1.0302734	64.96643
1.0327148	67.580956
1.0351562	70.14688
1.0375977	72.20369
1.0400391	73.24797
1.0424805	73.00233
1.0449219	71.50098
1.0473633	68.946075
1.0498047	65.44489
1.0522461	60.84044
1.0546875	54.821274
1.0571289	47.31982
1.0595703	39.083675
1.0620117	32.32608
1.0644531	30.564459
1.0668945	35.09749
1.0693359	43.142685
1.0717773	51.9207
1.0742188	60.27234
1.0766602	67.922424
1.0791016	74.69823
1.081543	80.18436
1.0839844	83.87679
1.0864258	85.60668
1.0888672	85.86653
1.0913086	85.74397
1.09375	86.37852
1.0961914	88.263405
1.0986328	91.01886
1.1010742	93.84589
1.1035156	96.13028
1.105957	97.645065
1.1083984	98.32615
1.1108398	97.97224
1.1132812	96.22884
1.1157227	92.89973
1.1181641	88.30391
1.1206055	83.35681
1.1230469	79.2813
1.1254883	77.17562
1.1279297	77.79487
1.1303711	81.53102
1.1328125	88.17903
1.1352539	96.57778
1.1376953	104.76121
1.1401367	110.72537
1.1425781	113.27536
1.1450195	112.44156
1.1474609	109.23279
1.1499023	104.8542
1.1523438	100.00552
1.1547852	95.03656
1.1572266	90.94096
1.159668	89.95462
1.1621094	94.27997
1.1645508	103.73522
1.1669922	115.64816
1.1694336	126.99587
1.171875	135.8965
1.1743164	141.65768
1.1767578	144.09523
1.1791992	142.91362
1.1816406	137.63281
1.184082	128.0108
1.1865234	114.49301
1.1889648	98.282455
1.1914062	80.98115
1.1938477	64.13904
1.1962891	49.31878
1.1987305	39.224495
1.2011719	38.269283
1.2036133	47.177628
1.2060547	61.245068
1.2084961	76.59878
1.2109375	91.428505
1.2133789	105.04311
1.2158203	117.20999
1.2182617	127.79303
1.2207031	136.64066
1.2231445	143.62257
1.2255859	148.65858
1.2280273	151.66605
1.2304688	152.50452
1.2329102	151.03302
1.2353516	147.2838
1.237793	141.60214
1.2402344	134.57892
1.2426758	126.74965
1.2451172	118.25913
1.2475586	108.78828
1.25	97.84262
1.2524414	85.17672
1.2548828	71.04808
1.2573242	56.224297
1.2597656	42.01182
1.262207	30.939888
1.2646484	27.851446
1.2670898	34.722065
1.2695312	46.5752
1.2719727	59.452187
1.2744141	71.94394
1.2768555	83.941826
1.2792969	95.78192
1.2817383	107.50351
1.2841797	118.48705
1.2866211	127.73001
1.2890625	134.50417
1.2915039	138.86154
1.2939453	141.60289
1.2963867	143.68707
1.2988281	145.51721
1.3012695	146.74734
1.3037109	146.79723
1.3061523	145.56563
1.3085938	143.68564
1.3110352	142.08633
1.3134766	141.21959
1.315918	140.66495
1.3183594	139.49275
1.3208008	136.99947
1.3232422	133.14978
1.3256836	128.43947
1.328125	123.36349
1.3305664	117.93892
1.3330078	111.67343
1.3354492	103.97235
1.3378906	94.63711
1.340332	84.138916
1.3427734	73.595505
1.3452148	64.51744
1.3476562	58.39064
1.3500977	56.193356
1.3525391	58.125023
1.3549805	63.746277
1.3574219	72.18687
1.3598633	82.16363
1.3623047	92.07556
1.3647461	100.35439
1.3671875	105.92249
1.3696289	108.51466
1.3720703	108.66201
1.3745117	107.27763
1.3769531	105.04245
1.3793945	102.03503
1.3818359	97.93094
1.3842773	92.57749
1.3867188	86.42443
1.3891602	80.474594
1.3916016	75.79948
1.394043	73.003456
1.3964844	72.09685
1.3989258	72.82352
1.4013672	75.02548
1.4038086	78.76082
1.40625	84.244606
1.4086914	91.70216
1.4111328	101.13566
1.4135742	112.15131
1.4160156	124.06355
1.418457	136.26526
1.4208984	148.56735
1.4233398	161.18939
1.4257812	174.32727
1.4282227	187.6033
1.4306641	199.86938
1.4331055	209.56017
1.4355469	215.35309
1.4379883	216.72609
1.4404297	214.11107
1.4428711	208.55573
1.4453125	201.04984
1.4477539	191.92319
1.4501953	180.77142
1.4526367	167.01016
1.4550781	150.6854
1.4575195	133.0198
1.4599609	116.33116
1.4624023	103.14292
1.4648438	94.68071
1.4672852	90.004036
1.4697266	87.04992
1.472168	84.47823
1.4746094	82.37595
1.4770508	81.59762
1.4794922	82.67536
1.4819336	85.394615
1.484375	89.294495
1.4868164	94.218834
1.4892578	100.17901
1.4916992	106.78223
1.4941406	112.98769
1.496582	117.49689
1.4990234	119.38668
1.5014648	118.44794
1.5039062	114.99879
1.5063477	109.32933
1.5087891	101.25827
1.5112305	90.26827
1.5136719	76.2282
1.5161133	60.26683
1.5185547	45.41307
1.5209961	36.365173
1.5234375	35.496433
1.5258789	38.887844
1.5283203	42.88098
1.5307617	47.96816
1.5332031	55.773266
1.5356445	65.70254
1.5380859	75.35259
1.5405273	82.91308
1.5429688	88.54007
1.5454102	94.04424
1.5478516	101.14365
1.550293	109.73546
1.5527344	118.04812
1.5551758	124.225
1.5576172	127.51244
1.5600586	128.30731
1.5625	127.4052
1.5649414	125.2087
1.5673828	121.5556
1.5698242	116.19984
1.5722656	109.36245
1.574707	101.82988
1.5771484	94.54892
1.5795898	88.07682
1.5820312	82.36246
1.5844727	77.02407
1.5869141	71.833244
1.5893555	66.99876
1.5917969	63.066654
1.5942383	60.47402
1.5966797	59.051643
1.5991211	57.97305
1.6015625	56.282784
1.6040039	53.555786
1.6064453	50.217426
1.6088867	47.313396
1.6113281	45.729168
1.6137695	45.388256
1.6162109	45.346584
1.6186523	44.6821
1.6210938	43.187965
1.6235352	41.446827
1.6259766	40.420258
1.628418	40.806362
1.6308594	42.62575
1.6333008	45.38458
1.6357422	48.506027
1.6381836	51.579544
1.640625	54.41122
1.6430664	57.00714
1.6455078	59.50302
1.6479492	62.000713
1.6503906	64.3814
1.652832	66.273575
1.6552734	67.25597
1.6577148	67.14572
1.6601562	66.12883
1.6625977	64.58788
1.6650391	62.739624
1.6674805	60.439644
1.6699219	57.44178
1.6723633	53.958755
1.6748047	51.000603
1.6772461	49.92652
1.6796875	51.225285
1.6821289	53.934586
1.6845703	56.662037
1.6870117	58.882305
1.6894531	61.22872
1.6918945	64.66849
1.6943359	69.268745
1.6967773	73.85073
1.6992188	76.85916
1.7016602	77.44017
1.7041016	75.92716
1.706543	73.52097
1.7089844	71.27052
1.7114258	69.04168
1.7138672	65.53208
1.7163086	59.354156
1.71875	50.10902
1.7211914	38.73784
1.7236328	27.132984
1.7260742	17.199396
1.7285156	10.153495
1.730957	9.778286
1.7333984	18.871498
1.7358398	32.329094
1.7382812	46.814594
1.7407227	59.777992
1.7431641	69.64789
1.7456055	76.477394
1.7480469	81.85632
1.7504883	87.61703
1.7529297	94.04505
1.7553711	99.47971
1.7578125	101.71837
1.7602539	99.65899
1.7626953	94.02258
1.7651367	86.96091
1.7675781	80.73343
1.7700195	76.253784
1.7724609	72.9981
1.7749023	70.49202
1.7773438	69.45677
1.7797852	71.0947
1.7822266	75.34891
1.784668	80.57168
1.7871094	84.94324
1.7895508	87.650444
1.7919922	88.873856
1.7944336	88.97974
1.796875	87.75324
1.7993164	84.36846
1.8017578	78.04057
1.8041992	68.71433
1.8066406	57.283787
1.809082	45.260914
1.8115234	34.095783
1.8139648	24.730312
1.8164062	18.765793
1.8188477	20.733015
1.8212891	31.254848
1.8237305	45.639797
1.8261719	60.525875
1.8286133	73.86534
1.8310547	84.65943
1.8334961	92.96818
1.8359375	99.58872
1.8383789	105.33962
1.8408203	110.36438
1.8432617	114.01057
1.8457031	115.33849
1.8481445	113.75942
1.8505859	109.33099
1.8530273	102.61659
1.8554688	94.316345
1.8579102	84.98795
1.8603516	75.04528
1.862793	64.91784
1.8652344	55.078117
1.8676758	45.829273
1.8701172	37.19433
1.8725586	29.532228
1.875	25.085644
1.8774414	27.57301
1.8798828	36.10625
1.8823242	46.29106
1.8847656	55.09959
1.887207	61.268692
1.8896484	64.87645
1.8920898	66.80262
1.8945312	67.91559
1.8969727	68.356606
1.8994141	67.49888
1.9018555	64.575165
1.9042969	59.365253
1.9067383	52.47857
1.9091797	45.1447
1.9116211	38.61919
1.9140625	33.474285
1.9165039	29.359669
1.9189453	25.553633
1.9213867	21.623777
1.9238281	17.479958
1.9262695	13.018023
1.9287109	7.966859
1.9311523	2.2320821
1.9335938	4.371712
1.9360352	10.670753
1.9384766	16.54395
1.940918	22.314054
1.9433594	29.127378
1.9458008	37.876545
1.9482422	48.13037
1.9506836	58.372166
1.953125	67.00386
1.9555664	73.19581
1.9580078	77.2226
1.9604492	80.12279
1.9628906	82.83926
1.965332	85.548325
1.9677734	87.87986
1.9702148	89.70768
1.9726562	91.51986
1.9750977	93.931816
1.9775391	96.97201
1.9799805	100.16412
1.9824219	103.42513
1.9848633	107.63123
1.9873047	113.891
1.9897461	122.03844
1.9921875	130.11612
1.9946289	135.50623
1.9970703	136.4831
1.9995117	133.024
2.0019531	126.57628
2.0043945	118.97675
2.006836	111.17215
2.0092773	102.73636
2.0117188	92.58317
2.0141602	80.067604
2.0166016	65.50727
2.019043	49.973164
2.0214844	34.779404
2.0239258	21.178644
2.0263672	10.879593
2.0288086	8.718534
2.03125	13.8063
2.0336914	19.842705
2.0361328	26.371155
2.0385742	33.63473
2.0410156	40.92041
2.043457	47.139454
2.0458984	52.11023
2.0483398	57.333225
2.0507812	65.11244
2.0532227	76.14462
2.055664	88.52818
2.0581055	99.397
2.0605469	106.90791
2.0629883	111.19891
2.0654297	114.11023
2.067871	117.68635
2.0703125	122.36493
2.072754	126.60146
2.0751953	128.2602
2.0776367	126.21532
2.0800781	120.96005
2.0825195	114.10738
2.084961	107.18804
2.0874023	100.56188
2.0898438	93.38157
2.0922852	84.624596
2.0947266	74.18594
2.097168	63.218243
2.0996094	53.55968
2.1020508	46.43976
2.1044922	41.429203
2.1069336	37.152622
2.109375	33.169323
2.1118164	30.756514
2.1142578	31.36668
2.1166992	34.209694
2.1191406	36.96789
2.121582	38.0641
2.1240234	37.34566
2.1264648	35.621544
2.1289062	33.780857
2.1313477	32.091984
2.133789	30.313295
2.1362305	28.4144
2.1386719	27.008617
2.1411133	27.01916
2.1435547	28.904161
2.145996	32.42125
2.1484375	37.04753
2.150879	42.205433
2.1533203	47.223087
2.1557617	51.44605
2.1582031	54.51904
2.1606445	56.560814
2.163086	58.022408
2.1655273	59.283405
2.1679688	60.330544
2.1704102	60.823563
2.1728516	60.45428
2.175293	59.221905
2.1777344	57.40692
2.1801758	55.30802
2.1826172	52.99018
2.1850586	50.255863
2.1875	46.835197
2.1899414	42.615105
2.1923828	37.762238
2.1948242	32.70497
2.1972656	27.975037
2.199707	23.918604
2.2021484	20.422192
2.2045898	16.97414
2.2070312	13.109654
2.2094727	8.86025
2.211914	5.044736
2.2143555	3.7545907
2.2167969	4.9897966
2.2192383	5.9368315
2.2216797	6.159277
2.224121	6.1885457
2.2265625	6.094336
2.229004	5.2551155
2.2314453	3.9816542
2.2338867	6.086756
2.2363281	11.511204
2.2387695	17.25613
2.241211	21.434711
2.2436523	22.877495
2.2460938	21.497303
2.2485352	18.806332
2.2509766	17.87391
2.253418	20.292683
2.2558594	23.662058
2.2583008	25.151018
2.2607422	23.626066
2.2631836	19.634876
2.265625	15.174191
2.2680664	12.934371
2.2705078	13.330373
2.2729492	13.948868
2.2753906	13.763741
2.277832	14.347118
2.2802734	17.60092
2.2827148	22.663443
2.2851562	27.417997
2.2875977	30.470331
2.290039	31.412634
2.2924805	30.567265
2.2949219	28.535563
2.2973633	25.751999
2.2998047	22.391731
2.302246	18.797941
2.3046875	16.190365
2.307129	16.68573
2.3095703	21.111788
2.3120117	28.42656
2.3144531	37.747276
2.3168945	48.428352
2.319336	59.46531
2.3217773	69.541275
2.3242188	77.61566
2.3266602	83.574104
2.3291016	88.40389
2.331543	93.48352
2.3339844	99.27716
2.3364258	104.67913
2.3388672	107.76985
2.3413086	107.18929
2.34375	103.04082
2.3461914	96.892944
2.3486328	90.87231
2.3510742	86.25135
2.3535156	82.65666
2.355957	78.757545
2.3583984	73.61223
2.3608398	67.34188
2.3632812	60.86492
2.3657227	55.15336
2.368164	50.58558
2.3706055	46.846188
2.3730469	43.311363
2.3754883	39.453865
2.3779297	35.017876
2.380371	30.0619
2.3828125	24.945219
2.385254	20.196146
2.3876953	16.227627
2.3901367	13.138105
2.3925781	11.025097
2.3950195	10.582896
2.397461	12.417546
2.3999023	15.765586
2.4023438	19.472733
2.4047852	22.921337
2.4072266	25.983398
2.409668	28.727928
2.4121094	31.18685
2.4145508	33.32919
2.4169922	35.177452
2.4194336	36.84801
2.421875	38.410706
2.4243164	39.713806
2.4267578	40.40065
2.4291992	40.141296
2.4316406	38.89604
2.434082	37.025
2.4365234	35.167343
2.4389648	33.894264
2.4414062	33.321762
2.4438477	33.031445
2.446289	32.412453
2.4487305	31.124935
2.4511719	29.41045
2.4536133	28.110596
2.4560547	28.172358
2.458496	29.740557
2.4609375	31.923912
2.463379	33.632137
2.4658203	34.428886
2.4682617	34.845005
2.4707031	36.070232
2.4731445	38.96675
2.475586	43.211327
2.4780273	47.62875
2.4804688	51.130444
2.4829102	53.25446
2.4853516	54.150043
2.487793	54.19935
2.4902344	53.563183
2.4926758	52.01924
2.4951172	49.25391
2.4975586	45.388855
2.5	41.39012
2.5024414	39.041664
2.5048828	40.07079
2.5073242	44.84177
2.5097656	52.450367
2.512207	61.865566
2.5146484	72.31563
2.5170898	83.03621
2.5195312	93.09944
2.5219727	101.5298
2.524414	107.58933
2.5268555	111.0462
2.5292969	112.29856
2.5317383	112.24037
2.5341797	111.83252
2.536621	111.53075
2.5390625	111.00093
2.541504	109.47626
2.5439453	106.5983
2.5463867	103.15187
2.5488281	101.02627
2.5512695	101.97215
2.553711	105.89928
2.5561523	110.68784
2.5585938	113.80572
2.5610352	113.92784
2.5634766	111.44164
2.565918	107.83174
2.5683594	104.35311
2.5708008	100.95068
2.5732422	96.449196
2.5756836	89.79364
2.578125	81.11385
2.5805664	71.84479
2.5830078	63.898502
2.5854492	58.430454
2.5878906	55.4097
2.590332	54.604225
2.5927734	56.40504
2.5952148	60.981888
2.5976562	67.105415
2.6000977	72.57329
2.602539	75.534996
2.6049805	75.34843
2.6074219	72.70451
2.6098633	69.14102
2.6123047	66.10335
2.614746	64.03548
2.6171875	62.266567
2.619629	59.768234
2.6220703	55.960274
2.6245117	51.02243
2.6269531	45.795372
2.6293945	41.444412
2.631836	38.894875
2.6342773	38.2145
2.6367188	38.567825
2.6391602	38.8805
2.6416016	38.466854
2.644043	37.205963
2.6464844	35.396374
2.6489258	33.477757
2.6513672	31.76097
2.6538086	30.305607
2.65625	28.99692
2.6586914	27.720034
2.6611328	26.496992
2.6635742	25.503439
2.6660156	24.931204
2.668457	24.744398
2.6708984	24.578657
2.6733398	24.010666
2.6757812	23.087694
2.6782227	22.725773
2.680664	24.236135
2.6831055	27.764065
2.6855469	31.852823
2.6879883	34.764786
2.6904297	35.586445
2.692871	34.71762
2.6953125	33.855133
2.697754	34.883354
2.7001953	37.87995
2.7026367	40.92884
2.7050781	41.960365
2.7075195	40.037918
2.709961	35.65222
2.7124023	30.47922
2.7148438	26.524345
2.7172852	24.494823
2.7197266	23.081854
2.722168	20.657492
2.7246094	16.919783
2.7270508	13.186999
2.7294922	11.611304
2.7319336	12.26331
2.734375	12.721095
2.7368164	11.404661
2.7392578	8.221177
2.7416992	4.118626
2.7441406	2.7862134
2.746582	6.113145
2.7490234	9.315469
2.7514648	12.045046
2.7539062	14.672287
2.7563477	17.357847
2.758789	19.883135
2.7612305	21.85834
2.7636719	22.906626
2.7661133	22.688005
2.7685547	20.886787
2.770996	17.309101
2.7734375	12.142028
2.775879	6.8332753
2.7783203	7.49244
2.7807617	13.760787
2.7832031	20.163832
2.7856445	25.45914
2.788086	29.741552
2.7905273	33.727436
2.7929688	38.082184
2.7954102	42.780544
2.7978516	47.08639
2.800293	50.095238
2.8027344	51.28958
2.8051758	50.793896
2.8076172	49.281223
2.8100586	47.597446
2.8125	46.326263
2.8149414	45.64321
2.8173828	45.55299
2.8198242	46.116703
2.8222656	47.298973
2.824707	48.65041
2.8271484	49.347137
2.8295898	48.672157
2.8320312	46.55552
2.8344727	43.77893
2.836914	41.563686
2.8393555	40.525623
2.8417969	39.90696
2.8442383	38.14716
2.8466797	34.124893
2.849121	28.005486
2.8515625	21.761528
2.854004	19.18632
2.8564453	21.804562
2.8588867	25.898232
2.8613281	28.265226
2.8637695	28.254148
2.866211	27.246845
2.8686523	27.680748
2.8710938	30.65487
2.8735352	34.588623
2.8759766	37.118797
2.878418	36.829304
2.8808594	33.6521
2.8833008	28.747967
2.8857422	24.057991
2.8881836	21.153255
2.890625	19.709856
2.8930664	18.01892
2.8955078	15.15274
2.8979492	12.160631
2.9003906	11.903554
2.902832	14.961646
2.9052734	18.554178
2.9077148	20.903381
2.9101562	21.788603
2.9125977	21.85272
2.915039	21.771563
2.9174805	21.536085
2.9199219	20.523144
2.9223633	18.20087
2.9248047	14.664802
2.927246	10.709682
2.9296875	7.4863553
2.932129	5.5824685
2.9345703	4.5165772
2.9370117	5.362405
2.9394531	9.669187
2.9418945	15.791611
2.944336	22.014881
2.9467773	27.129011
2.9492188	30.58534
2.9516602	32.717064
2.9541016	34.60421
2.956543	37.293453
2.9589844	40.822598
2.9614258	44.20292
2.9638672	46.349495
2.9663086	46.937393
2.96875	46.663044
2.9711914	46.7613
2.9736328	47.885635
2.9760742	49.35445
2.9785156	49.71293
2.980957	47.92103
2.9833984	44.107796
2.9858398	39.622013
2.9882812	36.253227
2.9907227	34.676243
2.993164	33.71286
2.9956055	31.73313
2.9980469	28.378542
3.0004883	25.176487
3.0029297	24.618288
3.005371	27.151749
3.0078125	30.462505
3.010254	32.42737
3.0126953	32.530315
3.0151367	31.647478
3.0175781	31.167692
3.0200195	31.697884
3.022461	32.50735
3.0249023	32.405174
3.0273438	30.794947
3.0297852	28.01418
3.0322266	25.081375
3.034668	23.004322
3.0371094	21.964441
3.0395508	21.279152
3.0419922	20.23962
3.0444336	18.69561
3.046875	16.952322
3.0493164	15.309173
3.0517578	13.720923
3.0541992	11.977285
3.0566406	10.230275
3.059082	9.245233
3.0615234	9.59242
3.0639648	10.551196
3.0664062	11.047626
3.0688477	10.990849
3.071289	11.692825
3.0737305	14.583479
3.0761719	19.057302
3.0786133	23.378521
3.0810547	26.118074
3.083496	26.540525
3.0859375	24.697186
3.088379	21.38835
3.0908203	17.920368
3.0932617	15.475431
3.0957031	14.184581
3.0981445	13.134737
3.100586	11.54931
3.1030273	9.4433775
3.1054688	7.4661593
3.1079102	6.435207
3.1103516	6.684269
3.112793	7.9095616
3.1152344	9.665263
3.1176758	11.468812
3.1201172	12.933611
3.1225586	14.175494
3.125	15.986629
3.1274414	19.121939
3.1298828	23.28646
3.1323242	27.351255
3.1347656	30.261286
3.137207	31.650293
3.1396484	32.029125
3.1420898	32.438885
3.1445312	33.53192
3.1469727	34.87148
3.149414	35.363518
3.1518555	34.271473
3.1542969	31.87259
3.1567383	29.501936
3.1591797	28.748505
3.161621	29.93782
3.1640625	31.809275
3.166504	32.9305
3.1689453	32.730694
3.1713867	31.57307
3.1738281	30.344803
3.1762695	29.814083
3.178711	30.092426
3.1811523	30.681469
3.1835938	30.97253
3.1860352	30.624737
3.1884766	29.645514
3.190918	28.325987
3.1933594	27.151527
3.1958008	26.668701
3.1982422	27.222603
3.2006836	28.654512
3.203125	30.279346
3.2055664	31.215063
3.2080078	30.792587
3.2104492	28.873184
3.2128906	26.014353
3.215332	23.35616
3.2177734	21.922356
3.2202148	21.573801
3.2226562	21.07443
3.2250977	19.308966
3.227539	16.070269
3.2299805	12.21201
3.2324219	9.55574
3.2348633	9.5078335
3.2373047	10.711344
3.239746	11.385007
3.2421875	11.216467
3.244629	10.827035
3.2470703	10.839096
3.2495117	11.131407
3.2519531	11.140986
3.2543945	10.665636
3.256836	10.168878
3.2592773	10.373042
3.2617188	11.34994
3.2641602	12.400989
3.2666016	12.86351
3.269043	12.600035
3.2714844	12.057979
3.2739258	12.022275
3.2763672	12.942429
3.2788086	14.439722
3.28125	15.73156
3.2836914	16.20314
3.2861328	15.601751
3.2885742	14.056155
3.2910156	12.068512
3.293457	10.471659
3.2958984	10.077984
3.2983398	10.884876
3.3007812	12.069086
3.3032227	12.822875
3.305664	12.688241
3.3081055	11.552649
3.3105469	9.71193
3.3129883	8.1059265
3.3154297	8.209497
3.317871	10.176145
3.3203125	12.57819
3.322754	14.321647
3.3251953	15.027877
3.3276367	14.892687
3.3300781	14.485279
3.3325195	14.346636
3.334961	14.535964
3.3374023	14.638792
3.3398438	14.206189
3.3422852	13.068127
3.3447266	11.343587
3.347168	9.323542
3.3496094	7.449701
3.3520508	6.49308
3.3544922	7.203331
3.3569336	9.1058855
3.359375	11.136248
3.3618164	12.659978
3.3642578	13.621166
3.3666992	14.441828
3.3691406	15.583371
3.371582	16.95043
3.3740234	17.863472
3.3764648	17.616146
3.3789062	16.004662
3.3813477	13.62137
3.383789	11.849074
3.3862305	11.829608
3.3886719	12.807585
3.3911133	13.121516
3.3935547	11.840626
3.395996	8.9587345
3.3984375	5.189429
3.400879	2.3332047
3.4033203	3.5923297
3.4057617	5.2164097
3.4082031	5.5114565
3.4106445	4.695237
3.413086	3.6349933
3.4155273	3.3636615
3.4179688	3.6932075
3.4204102	3.684676
3.4228516	3.1218529
3.425293	2.661572
3.4277344	3.1488597
3.4301758	4.0137806
3.4326172	4.3737364
3.4350586	3.898363
3.4375	2.7182317
3.4399414	1.5305574
3.4423828	1.8544989
3.4448242	2.775217
3.4472656	3.0728922
3.449707	2.597957
3.4521484	2.0657094
3.4545898	3.073941
3.4570312	5.0555034
3.4594727	6.8995023
3.461914	8.051929
3.4643555	8.242973
3.4667969	7.4439974
3.4692383	5.851236
3.4716797	3.862515
3.474121	2.1875753
3.4765625	2.1488945
3.479004	3.2388818
3.4814453	4.3055253
3.4838867	5.3377914
3.4863281	6.594267
3.4887695	8.178377
3.491211	9.956092
3.4936523	11.692948
3.4960938	13.173985
3.4985352	14.233433
3.5009766	14.735477
3.503418	14.561438
3.5058594	13.648105
3.5083008	12.100807
3.5107422	10.384377
3.5131836	9.456605
3.515625	10.128423
3.5180664	11.857492
3.5205078	13.364903
3.5229492	13.725333
3.5253906	12.648927
3.527832	10.672957
3.5302734	9.49893
3.5327148	10.928089
3.5351562	14.002836
3.5375977	16.68467
3.540039	17.804928
3.5424805	17.09237
3.5449219	15.105844
3.5473633	13.167306
3.5498047	12.68149
3.552246	13.542562
3.5546875	14.251725
3.557129	13.614131
3.5595703	11.322989
3.5620117	7.9309354
3.5644531	5.203605
3.5668945	5.9374676
3.569336	8.36069
3.5717773	9.883818
3.5742188	9.756208
3.5766602	7.9841537
3.5791016	4.9798937
3.581543	1.3897064
3.5839844	2.0581279
3.5864258	4.6956515
3.5888672	6.0672593
3.5913086	6.0972743
3.59375	5.3932924
3.5961914	5.5847664
3.5986328	7.6077676
3.6010742	10.176858
3.6035156	11.976998
3.605957	12.39052
3.6083984	11.606711
3.6108398	10.886661
3.6132812	12.047304
3.6157227	15.1412
3.618164	18.503082
3.6206055	20.709997
3.6230469	21.102087
3.6254883	19.768011
3.6279297	17.473618
3.630371	15.413373
3.6328125	14.477443
3.635254	14.366741
3.6376953	13.985691
3.6401367	12.581831
3.6425781	10.259811
3.6450195	8.160832
3.647461	8.097284
3.6499023	9.93408
3.6523438	11.744941
3.6547852	12.350573
3.6572266	11.499084
3.659668	9.684466
3.6621094	8.131033
3.6645508	8.1826515
3.6669922	9.5020485
3.6694336	10.650435
3.671875	10.775307
3.6743164	9.732503
3.6767578	7.837085
3.6791992	5.642837
3.6816406	3.7400365
3.684082	2.5679054
3.6865234	2.2114758
3.6889648	2.4255347
3.6914062	2.9407551
3.6938477	3.4543936
3.696289	3.6813107
3.6987305	3.520665
3.7011719	3.1521738
3.7036133	2.9719245
3.7060547	3.1754365
3.708496	3.480204
3.7109375	3.5745575
3.713379	3.4455426
3.7158203	3.3488603
3.7182617	3.5213926
3.7207031	3.8511376
3.7231445	4.0190425
3.725586	3.804515
3.7280273	3.1726804
3.7304688	2.2446353
3.7329102	1.2654008
3.7353516	0.7367884
3.737793	1.0044249
3.7402344	1.2091959
3.7426758	1.0015635
3.7451172	0.44836575
3.7475586	0.9584637
3.75	2.2666311
3.7524414	3.6647284
3.7548828	4.909535
3.7573242	5.8068705
3.7597656	6.228315
3.762207	6.137552
3.7646484	5.6201925
3.7670898	4.9395986
3.7695312	4.5989776
3.7719727	5.0902348
3.774414	6.2946415
3.7768555	7.6788244
3.7792969	8.788434
3.7817383	9.351807
3.7841797	9.291144
3.786621	8.752881
3.7890625	8.120067
3.791504	7.879779
3.7939453	8.229721
3.7963867	8.840423
3.7988281	9.180538
3.8012695	8.893351
3.803711	7.935284
3.8061523	6.6194935
3.8085938	5.6217675
3.8110352	5.600073
3.8134766	6.3201385
3.815918	6.985746
3.8183594	7.086679
3.8208008	6.491427
3.8232422	5.3190994
3.8256836	3.8213828
3.828125	2.2802527
3.8305664	0.93060005
3.8330078	0.07991834
3.8354492	0.68255824
3.8378906	0.86619735
3.840332	0.64850855
3.8427734	0.19176094
3.8452148	0.85981244
3.8476562	1.8309916
3.8500977	2.720327
3.852539	3.31173
3.8549805	3.453148
3.8574219	3.1180036
3.8598633	2.479616
3.8623047	2.0344238
3.864746	2.3431513
3.8671875	3.0688727
3.869629	3.6326127
3.8720703	3.7793815
3.8745117	3.480246
3.8769531	2.8551066
3.8793945	2.1192837
3.881836	1.5229608
3.8842773	1.2212003
3.8867188	1.0946796
3.8891602	0.9233144
3.8916016	0.6464722
3.894043	0.4267246
3.8964844	0.6778886
3.8989258	1.2334796
3.9013672	1.8884562
3.9038086	2.5421884
3.90625	3.06998
3.9086914	3.3353977
3.9111328	3.2357733
3.9135742	2.7447531
3.9160156	1.9384339
3.918457	1.0280932
3.9208984	0.68321896
3.9233398	1.2147175
3.9257812	1.6214504
3.9282227	1.6845919
3.930664	1.4853232
3.9331055	1.3033608
3.9355469	1.4384243
3.9379883	1.7634546
3.9404297	1.971633
3.942871	1.9079736
3.9453125	1.5648115
3.947754	1.0449891
3.9501953	0.57740146
3.9526367	0.5809131
3.9550781	0.8355956
3.9575195	0.959598
3.959961	0.9148973
3.9624023	0.78424263
3.9648438	0.6891255
3.9672852	0.6787112
3.9697266	0.6837195
3.972168	0.6456913
3.9746094	0.59252554
3.9770508	0.5995889
3.9794922	0.6753619
3.9819336	0.74650043
3.984375	0.75603735
3.9868164	0.6969715
3.9892578	0.5970098
3.9916992	0.4915142
3.9941406	0.40661138
3.996582	0.37705204
3.9990234	0.44466197
4.001465	0.5790957
4.0039062	0.70661896
4.0063477	0.7919293
4.008789	0.8819204
4.0112305	1.0872041
4.013672	1.4420885
4.0161133	1.8511995
4.0185547	2.1818364
4.020996	2.330362
4.0234375	2.2544658
4.025879	1.9940237
4.0283203	1.6802722
4.0307617	1.4998553
4.033203	1.5291407
4.0356445	1.6284994
4.038086	1.6369488
4.0405273	1.5105071
4.0429688	1.3227061
4.04541	1.2205075
4.0478516	1.2918642
4.050293	1.4582361
4.0527344	1.5972445
4.055176	1.6450843
4.057617	1.5893985
4.0600586	1.447882
4.0625	1.267334
4.0649414	1.1369274
4.067383	1.1541691
4.069824	1.3056746
4.0722656	1.470987
4.074707	1.5493174
4.0771484	1.5162827
4.07959	1.4294176
4.0820312	1.392928
4.0844727	1.4542097
4.086914	1.538523
4.0893555	1.5314567
4.091797	1.3674158
4.0942383	1.0497004
4.0966797	0.639089
4.099121	0.25765574
4.1015625	0.28320026
4.104004	0.49764693
4.1064453	0.6048008
4.1088867	0.6094892
4.111328	0.56565666
4.1137695	0.5238586
4.116211	0.4882786
4.1186523	0.42477018
4.1210938	0.30816898
4.123535	0.1476863
4.1259766	0.090954036
4.128418	0.24743411
4.1308594	0.37209734
4.133301	0.42823482
4.135742	0.40971252
4.1381836	0.32856253
4.140625	0.21313573
4.1430664	0.12048347
4.145508	0.1409323
4.147949	0.19875629
4.1503906	0.21698743
4.152832	0.18403491
4.1552734	0.11483464
4.157715	0.07430333
4.1601562	0.14069404
4.1625977	0.21979868
4.165039	0.27977872
4.1674805	0.3248143
4.169922	0.3674032
4.1723633	0.41080713
4.1748047	0.44338867
4.177246	0.44939673
4.1796875	0.42255613
4.182129	0.3734848
4.1845703	0.32903937
4.1870117	0.31495926
4.189453	0.32664117
4.1918945	0.33671606
4.194336	0.32954603
4.1967773	0.3143707
4.1992188	0.31644794
4.20166	0.3475706
4.2041016	0.38879052
4.206543	0.4122181
4.2089844	0.40126505
4.211426	0.35429785
4.213867	0.2822344
4.2163086	0.20426798
4.21875	0.14227556
4.2211914	0.1088783
4.223633	0.09229996
4.226074	0.07556935
4.2285156	0.068092495
4.230957	0.0895998
4.2333984	0.12283957
4.23584	0.14455642
4.2382812	0.14355092
4.2407227	0.11834116
4.243164	0.077082604
4.2456055	0.04711256
4.248047	0.06888577
4.2504883	0.10125605
4.2529297	0.11605609
4.255371	0.10798439
4.2578125	0.08097281
4.260254	0.04709533
4.2626953	0.035078086
4.2651367	0.05276649
4.267578	0.065137774
4.2700195	0.066364594
4.272461	0.07146185
4.2749023	0.09731816
4.2773438	0.13537954
4.279785	0.16802436
4.2822266	0.18245392
4.284668	0.17197439
4.2871094	0.13635147
4.289551	0.081861235
4.291992	0.027563168
4.2944336	0.05760657
4.296875	0.10539648
4.2993164	0.13362901
4.301758	0.13796604
4.304199	0.12153132
4.3066406	0.094475575
4.309082	0.074512795
4.3115234	0.076244056
4.313965	0.08800283
4.3164062	0.09204566
4.3188477	0.08205391
4.321289	0.059617825
4.3237305	0.030896805
4.326172	0.010642875
4.3286133	0.0255639
4.3310547	0.036966443
4.333496	0.037585873
4.3359375	0.029182035
4.338379	0.016024336
4.3408203	0.0039548185
4.3432617	0.008380062
4.345703	0.014290038
4.3481445	0.02035082
4.350586	0.030175054
4.3530273	0.042321112
4.3554688	0.052771915
4.35791	0.058107972
4.3603516	0.056671176
4.362793	0.04902152
4.3652344	0.03783367
4.367676	0.027995275
4.370117	0.024839671
4.3725586	0.027063956
4.375	0.028668785
4.3774414	0.02701648
4.379883	0.022876127
4.382324	0.01890588
4.3847656	0.017508518
4.387207	0.017880378
4.3896484	0.017546646
4.39209	0.015614121
4.3945312	0.013157959
4.3969727	0.012147105
4.399414	0.012840046
4.4018555	0.013369393
4.404297	0.012548938
4.4067383	0.010618445
4.4091797	0.0089359125
4.411621	0.008598427
4.4140625	0.008782673
4.416504	0.008116517
4.4189453	0.0061105127
4.4213867	0.0033412122
4.423828	0.0020226475
4.4262695	0.0037198928
4.428711	0.0050140615
4.4311523	0.005354452
4.4335938	0.005235321
4.436035	0.005384426
4.4384766	0.005748369
4.440918	0.0056718607
4.4433594	0.0046331133
4.445801	0.0026177221
4.448242	8.912439E-4
4.4506836	0.0033057358
4.453125	0.005665723
4.4555664	0.0070535997
4.458008	0.007177237
4.460449	0.0061164415
4.4628906	0.0041486234
4.465332	0.0020146908
4.4677734	0.0016520865
4.470215	0.0030001823
4.4726562	0.0037991374
4.4750977	0.0037291492
4.477539	0.0029112655
4.4799805	0.0016822835
4.482422	4.947426E-4
4.4848633	9.5651834E-4
4.4873047	0.0016720911
4.489746	0.002003568
4.4921875	0.0019362057
4.494629	0.0016123693
4.4970703	0.0010897715
4.4995117	5.090506E-4
4.501953	4.6539307E-4
4.5043945	9.038421E-4
4.506836	0.0011727563
4.5092773	0.0011905733
4.5117188	9.58834E-4
4.51416	6.2876765E-4
4.5166016	4.989717E-4
4.519043	7.096621E-4
4.5214844	9.141381E-4
4.523926	9.740153E-4
4.526367	9.094674E-4
4.5288086	7.8785326E-4
4.53125	6.687546E-4
4.5336914	5.725407E-4
4.536133	4.7022392E-4
4.538574	3.702403E-4
4.5410156	2.9827713E-4
4.543457	3.0928044E-4
4.5458984	3.7037235E-4
4.54834	4.254036E-4
4.5507812	4.3883614E-4
4.5532227	4.251839E-4
4.555664	4.0072555E-4
4.5581055	4.0025538E-4
4.560547	3.900524E-4
4.5629883	3.7034877E-4
4.5654297	3.5705892E-4
4.567871	3.829508E-4
4.5703125	4.0909566E-4
4.572754	4.227318E-4
4.5751953	3.9358213E-4
4.5776367	3.3775737E-4
4.580078	3.0539316E-4
4.5825195	3.0721462E-4
4.584961	3.3661112E-4
4.5874023	3.4273564E-4
4.5898438	3.5604023E-4
4.592285	3.43377E-4
4.5947266	3.243489E-4
4.597168	2.7786085E-4
4.5996094	1.965306E-4
4.602051	1.1291504E-4
4.604492	7.117861E-5
4.6069336	8.364545E-5
4.609375	1.1024475E-4
4.6118164	1.3774386E-4
4.614258	1.8773273E-4
4.616699	2.3862816E-4
4.6191406	2.7732507E-4
4.621582	2.7357097E-4
4.6240234	2.289276E-4
4.626465	1.4903706E-4
4.6289062	8.545262E-5
4.6313477	8.4608066E-5
4.633789	9.815566E-5
4.6362305	9.795382E-5
4.638672	7.488573E-5
4.6411133	4.7104946E-5
4.6435547	1.3583751E-5
4.645996	3.1751486E-5
4.6484375	6.115425E-5
4.650879	1.1167359E-4
4.6533203	1.3477061E-4
4.6557617	1.4306894E-4
4.658203	1.1800678E-4
4.6606445	1.0532987E-4
4.663086	1.2850945E-4
4.6655273	1.5825064E-4
4.6679688	1.7108397E-4
4.67041	1.5591616E-4
4.6728516	1.2325664E-4
4.675293	1.0168584E-4
4.6777344	1.3588036E-4
4.680176	1.6650968E-4
4.682617	1.8059964E-4
4.6850586	1.6329756E-4
4.6875	1.3362552E-4
4.6899414	1.1295627E-4
4.692383	1.3427735E-4
4.694824	1.4973064E-4
4.6972656	1.7889263E-4
4.699707	1.8701202E-4
4.7021484	1.845052E-4
4.70459	1.5563965E-4
4.7070312	1.0447536E-4
4.7094727	5.1914933E-5
4.711914	2.1579186E-5
4.7143555	6.589607E-5
4.716797	7.1244E-5
4.7192383	8.557175E-5
4.7216797	7.618706E-5
4.724121	7.606568E-5
4.7265625	8.0626494E-5
4.729004	9.007857E-5
4.7314453	1.0010511E-4
4.7338867	8.786731E-5
4.736328	7.6986034E-5
4.7387695	4.1468058E-5
4.741211	7.6293945E-6
4.7436523	3.3569337E-5
4.7460938	5.925442E-5
4.748535	7.236271E-5
4.7509766	7.3433665E-5
4.753418	7.6293945E-5
4.7558594	7.324219E-5
4.758301	6.7760026E-5
4.760742	6.420035E-5
4.7631836	7.477683E-5
4.765625	6.755354E-5
4.7680664	5.806365E-5
4.770508	4.670785E-5
4.772949	2.8790226E-5
4.7753906	1.5565647E-5
4.777832	1.7059845E-6
4.7802734	1.0235907E-5
4.782715	3.2939202E-5
4.7851562	4.788927E-5
4.7875977	5.777346E-5
4.790039	7.033955E-5
4.7924805	7.325808E-5
4.794922	5.1293144E-5
4.7973633	4.3158372E-5
4.7998047	1.5971696E-5
4.802246	1.1108566E-5
4.8046875	3.512837E-5
4.807129	5.3345786E-5
4.8095703	5.6271634E-5
4.8120117	5.1660987E-5
4.814453	5.5882385E-5
4.8168945	4.077981E-5
4.819336	5.0911563E-5
4.8217773	5.6970686E-5
4.8242188	6.0098133E-5
4.82666	7.1383016E-5
4.8291016	6.310096E-5
4.831543	4.536764E-5
4.8339844	4.5039284E-5
4.836426	2.1847261E-5
4.838867	2.3090737E-5
4.8413086	9.289395E-6
4.84375	2.2951675E-5
4.8461914	3.312423E-5
4.848633	3.460248E-5
4.851074	4.4723158E-5
4.8535156	4.5593213E-5
4.855957	4.7455815E-5
4.8583984	4.3701184E-5
4.86084	2.9764418E-5
4.8632812	1.9913305E-5
4.8657227	2.0471814E-5
4.868164	2.0294225E-5
4.8706055	2.1646727E-5
4.873047	3.0896692E-5
4.8754883	3.0027266E-5
4.8779297	3.2592787E-5
4.880371	2.8239068E-5
4.8828125	3.128284E-5
4.885254	2.9350866E-5
4.8876953	2.5940117E-5
4.8901367	2.936078E-5
4.892578	3.0203635E-5
4.8950195	2.1820602E-5
4.897461	2.2125245E-5
4.8999023	2.402048E-5
4.9023438	2.8011415E-5
4.904785	2.0315727E-5
4.9072266	1.4682945E-5
4.909668	2.106131E-5
4.9121094	1.1444092E-5
4.914551	7.638925E-6
4.916992	7.2378793E-6
4.9194336	1.3754086E-5
4.921875	1.2680642E-5
4.9243164	7.991683E-6
4.926758	1.4395113E-5
4.929199	5.1859192E-6
4.9316406	5.3509966E-6
4.934082	1.265704E-5
4.9365234	7.604469E-6
4.938965	1.0977202E-5
4.9414062	2.2166519E-6
4.9438477	3.6837023E-6
4.946289	6.1369515E-6
4.9487305	2.6990838E-6
4.951172	1.1430177E-5
4.9536133	4.9776413E-6
4.9560547	9.860273E-6
4.958496	9.3460385E-6
4.9609375	6.4549386E-6
4.963379	5.9316685E-6
4.9658203	4.114085E-6
4.9682617	1.7745775E-6
4.970703	1.0719401E-5
4.9731445	1.3383504E-5
4.975586	1.3225248E-5
4.9780273	7.839477E-6
4.9804688	8.575781E-6
4.98291	8.843401E-6
4.9853516	7.798074E-6
4.987793	6.449267E-6
4.9902344	5.79823E-6
4.992676	9.1642405E-6
4.995117	8.975605E-6
4.9975586	1.026864E-5



DATASET #2

Name: FAS H2 (cm/s)
Num Points: 2044
Info: 

X, Y Data:
0.009765625	1.6455147
0.012207031	2.0997818
0.014648438	2.5682714
0.017089844	3.039917
0.01953125	3.4978569
0.021972656	3.9209137
0.024414062	4.28675
0.026855469	4.5763755
0.029296875	4.778468
0.03173828	4.892654
0.034179688	4.93099
0.036621094	4.9163857
0.0390625	4.8777637
0.041503906	4.8415494
0.043945312	4.8219066
0.04638672	4.813068
0.048828125	4.789054
0.05126953	4.7117553
0.053710938	4.544427
0.056152344	4.2637687
0.05859375	3.8676178
0.061035156	3.3775213
0.06347656	2.8412151
0.06591797	2.34165
0.068359375	2.012583
0.07080078	2.0012176
0.07324219	2.318592
0.075683594	2.8297665
0.078125	3.410975
0.080566406	4.0025496
0.08300781	4.5930824
0.08544922	5.197021
0.087890625	5.832197
0.09033203	6.501498
0.09277344	7.1867995
0.095214844	7.855276
0.09765625	8.469682
0.10009766	8.994551
0.10253906	9.395972
0.10498047	9.639581
0.10742188	9.692212
0.10986328	9.529434
0.11230469	9.145577
0.11474609	8.559747
0.1171875	7.8135424
0.11962891	6.9624777
0.12207031	6.071451
0.12451172	5.2312703
0.12695312	4.608962
0.12939453	4.4855113
0.13183594	5.106122
0.13427734	6.4449534
0.13671875	8.325054
0.13916016	10.617396
0.14160156	13.262734
0.14404297	16.226776
0.14648438	19.457067
0.14892578	22.860357
0.15136719	26.306828
0.1538086	29.655039
0.15625	32.782288
0.1586914	35.603718
0.16113281	38.071392
0.16357422	40.16006
0.16601562	41.855934
0.16845703	43.16484
0.17089844	44.137695
0.17333984	44.891064
0.17578125	45.59243
0.17822266	46.398876
0.18066406	47.37792
0.18310547	48.465992
0.18554688	49.498367
0.18798828	50.285976
0.19042969	50.684044
0.1928711	50.61878
0.1953125	50.080673
0.1977539	49.116592
0.20019531	47.84607
0.20263672	46.492935
0.20507812	45.391586
0.20751953	44.92008
0.20996094	45.359196
0.21240234	46.761883
0.21484375	48.942593
0.21728516	51.58909
0.21972656	54.39123
0.22216797	57.105183
0.22460938	59.554718
0.22705078	61.613884
0.22949219	63.20468
0.2319336	64.31203
0.234375	64.995285
0.2368164	65.37316
0.23925781	65.577545
0.24169922	65.69891
0.24414062	65.75918
0.24658203	65.73363
0.24902344	65.60363
0.25146484	65.39763
0.25390625	65.185646
0.25634766	65.03085
0.25878906	64.94238
0.26123047	64.87579
0.26367188	64.78529
0.26611328	64.676605
0.2685547	64.60012
0.2709961	64.57257
0.2734375	64.48784
0.2758789	64.103645
0.2783203	63.134697
0.28076172	61.393158
0.28320312	58.884842
0.28564453	55.805103
0.28808594	52.447155
0.29052734	49.094116
0.29296875	45.981335
0.29541016	43.35172
0.29785156	41.513588
0.30029297	40.75779
0.30273438	41.123875
0.30517578	42.243214
0.3076172	43.46634
0.3100586	44.160763
0.3125	43.93643
0.3149414	42.705
0.3173828	40.608627
0.31982422	37.893806
0.32226562	34.810314
0.32470703	31.59533
0.32714844	28.545506
0.32958984	26.104649
0.33203125	24.831324
0.33447266	25.140491
0.33691406	27.011856
0.33935547	30.063524
0.34179688	33.89528
0.34423828	38.29977
0.3466797	43.262142
0.3491211	48.858387
0.3515625	55.13655
0.3540039	62.026733
0.3564453	69.30798
0.35888672	76.638954
0.36132812	83.63377
0.36376953	89.9427
0.36621094	95.293304
0.36865234	99.46722
0.37109375	102.2292
0.37353516	103.26743
0.37597656	102.21078
0.37841797	98.74647
0.38085938	92.80062
0.38330078	84.71144
0.3857422	75.34127
0.3881836	66.110855
0.390625	58.913372
0.3930664	55.66848
0.3955078	57.290874
0.39794922	62.97573
0.40039062	70.87311
0.40283203	79.09522
0.40527344	86.09785
0.40771484	90.73863
0.41015625	92.30998
0.41259766	90.5577
0.41503906	85.635864
0.41748047	77.99893
0.41992188	68.29137
0.42236328	57.31102
0.4248047	46.094757
0.4272461	36.109432
0.4296875	29.309752
0.4321289	27.097908
0.4345703	28.310436
0.43701172	30.199846
0.43945312	30.890202
0.44189453	29.741049
0.44433594	26.86666
0.44677734	22.781406
0.44921875	18.35313
0.45166016	15.181961
0.45410156	15.571635
0.45654297	19.828081
0.45898438	25.88881
0.46142578	32.05633
0.4638672	37.411842
0.4663086	41.53503
0.46875	44.36795
0.4711914	46.13821
0.4736328	47.283367
0.47607422	48.34947
0.47851562	49.844906
0.48095703	52.067005
0.48339844	54.97998
0.48583984	58.215916
0.48828125	61.177994
0.49072266	63.17727
0.49316406	63.56713
0.49560547	61.87179
0.49804688	57.898647
0.5004883	51.79903
0.5029297	44.054714
0.5053711	35.42471
0.5078125	27.012737
0.5102539	20.779188
0.5126953	19.858809
0.5151367	24.873238
0.5175781	32.644447
0.52001953	40.67736
0.52246094	47.84016
0.52490234	53.856453
0.52734375	59.028786
0.52978516	63.898045
0.53222656	68.835205
0.53466797	73.834785
0.5371094	78.66549
0.5395508	83.18344
0.5419922	87.48173
0.5444336	91.749695
0.546875	95.99359
0.5493164	99.89111
0.5517578	102.90459
0.5541992	104.52364
0.5566406	104.43172
0.55908203	102.51056
0.56152344	98.74051
0.56396484	93.11642
0.56640625	85.653946
0.56884766	76.47534
0.57128906	65.91586
0.57373047	54.619904
0.5761719	43.679066
0.5786133	34.896297
0.5810547	30.764183
0.5834961	32.476837
0.5859375	37.96952
0.5883789	44.437237
0.5908203	50.319847
0.5932617	55.148552
0.5957031	59.155266
0.59814453	63.074806
0.60058594	68.05272
0.60302734	75.44047
0.60546875	86.28174
0.60791016	100.7302
0.61035156	117.92968
0.61279297	136.41608
0.6152344	154.64238
0.6176758	171.31044
0.6201172	185.42369
0.6225586	196.1452
0.625	202.65796
0.6274414	204.219
0.6298828	200.43948
0.6323242	191.63179
0.6347656	178.97926
0.63720703	164.36105
0.63964844	149.86133
0.64208984	137.20523
0.64453125	127.44061
0.64697266	120.92447
0.64941406	117.3035
0.65185547	115.33022
0.6542969	112.91454
0.6567383	107.75143
0.6591797	98.22474
0.6616211	84.11044
0.6640625	67.00312
0.6665039	51.033695
0.6689453	44.14628
0.6713867	52.269093
0.6738281	69.75954
0.67626953	89.5984
0.67871094	108.04533
0.68115234	122.77109
0.68359375	132.09837
0.68603516	135.07614
0.68847656	131.67671
0.69091797	122.78646
0.6933594	109.92092
0.6958008	94.77651
0.6982422	78.83269
0.7006836	63.187817
0.703125	48.659904
0.7055664	35.991188
0.7080078	25.943542
0.7104492	19.194614
0.7128906	16.170162
0.71533203	17.048393
0.71777344	21.646671
0.72021484	29.1425
0.72265625	38.23869
0.72509766	47.43087
0.72753906	55.173805
0.72998047	60.039944
0.7324219	60.89186
0.7348633	57.039803
0.7373047	48.343994
0.7397461	35.279663
0.7421875	19.51731
0.7446289	13.235787
0.7470703	31.735458
0.7495117	56.189445
0.7519531	82.178894
0.75439453	108.17023
0.75683594	132.78157
0.75927734	154.68587
0.76171875	172.78961
0.76416016	186.40416
0.76660156	195.3082
0.76904297	199.69078
0.7714844	200.04068
0.7739258	197.06772
0.7763672	191.68323
0.7788086	184.99277
0.78125	178.21295
0.7836914	172.46469
0.7861328	168.49959
0.7885742	166.47841
0.7910156	165.9114
0.79345703	165.7767
0.79589844	164.79526
0.79833984	161.82597
0.80078125	156.30775
0.80322266	148.59264
0.80566406	139.95802
0.80810547	132.12485
0.8105469	126.37746
0.8129883	122.86848
0.8154297	120.79809
0.8178711	119.29746
0.8203125	118.09457
0.8227539	117.3974
0.8251953	117.26118
0.8276367	117.13755
0.8300781	116.05112
0.83251953	113.18856
0.83496094	108.40312
0.83740234	102.36895
0.83984375	96.41713
0.84228516	92.17741
0.84472656	91.14216
0.84716797	94.26527
0.8496094	101.73048
0.8520508	112.95487
0.8544922	126.75497
0.8569336	141.59975
0.859375	155.9001
0.8618164	168.26279
0.8642578	177.6113
0.8666992	183.14276
0.8691406	184.21667
0.87158203	180.346
0.87402344	171.40303
0.87646484	157.9845
0.87890625	141.73761
0.88134766	125.4081
0.88378906	112.33212
0.88623047	105.12508
0.8886719	104.09837
0.8911133	107.12835
0.8935547	111.20924
0.8959961	113.72842
0.8984375	112.77613
0.9008789	107.16169
0.9033203	96.52141
0.9057617	81.455414
0.9082031	63.637527
0.91064453	46.280514
0.91308594	35.89817
0.91552734	40.042065
0.91796875	54.383026
0.92041016	70.89094
0.92285156	85.70443
0.92529297	97.07608
0.9277344	104.27656
0.9301758	107.24972
0.9326172	106.29933
0.9350586	101.77585
0.9375	94.00689
0.9399414	83.63565
0.9423828	72.24287
0.9448242	62.793644
0.9472656	58.7819
0.94970703	61.174187
0.95214844	67.11881
0.95458984	73.08411
0.95703125	77.111855
0.95947266	78.67109
0.96191406	77.88802
0.96435547	75.07542
0.9667969	70.796295
0.9692383	66.237656
0.9716797	63.310295
0.9741211	63.84288
0.9765625	68.205284
0.9790039	75.096825
0.9814453	82.70286
0.9838867	89.547676
0.9863281	94.59547
0.98876953	97.17094
0.99121094	97.03093
0.99365234	94.47703
0.99609375	90.25529
0.99853516	85.14852
1.0009766	79.517555
1.003418	73.23393
1.0058594	66.10378
1.0083008	58.376442
1.0107422	50.95017
1.0131836	45.36058
1.015625	43.723087
1.0180664	47.892143
1.0205078	57.70797
1.0229492	71.02695
1.0253906	85.341385
1.027832	98.778404
1.0302734	110.33659
1.0327148	119.60608
1.0351562	126.18478
1.0375977	129.25786
1.0400391	127.73153
1.0424805	120.80469
1.0449219	108.49728
1.0473633	91.75116
1.0498047	72.08693
1.0522461	51.135185
1.0546875	30.611555
1.0571289	14.856471
1.0595703	18.906126
1.0620117	32.858997
1.0644531	44.814648
1.0668945	52.816486
1.0693359	56.989475
1.0717773	58.626057
1.0742188	59.72806
1.0766602	62.334538
1.0791016	67.67667
1.081543	75.62009
1.0839844	84.92313
1.0864258	94.103546
1.0888672	102.28288
1.0913086	109.53588
1.09375	116.47919
1.0961914	123.33987
1.0986328	129.35681
1.1010742	133.1627
1.1035156	133.72858
1.105957	130.97375
1.1083984	125.5917
1.1108398	118.36053
1.1132812	109.67992
1.1157227	99.89772
1.1181641	90.15464
1.1206055	82.78803
1.1230469	80.352745
1.1254883	83.66625
1.1279297	91.384766
1.1303711	101.54055
1.1328125	112.35031
1.1352539	121.84657
1.1376953	127.73948
1.1401367	128.02138
1.1425781	121.79693
1.1450195	109.70821
1.1474609	93.7353
1.1499023	76.72044
1.1523438	62.607113
1.1547852	57.828312
1.1572266	68.14131
1.159668	90.70426
1.1621094	118.66651
1.1645508	146.6916
1.1669922	171.29572
1.1694336	190.65674
1.171875	204.31427
1.1743164	212.48029
1.1767578	215.2376
1.1791992	212.18
1.1816406	202.75743
1.184082	187.02937
1.1865234	166.2498
1.1889648	142.93797
1.1914062	120.47749
1.1938477	102.52016
1.1962891	92.28667
1.1987305	91.34965
1.2011719	98.43265
1.2036133	110.17069
1.2060547	123.11674
1.2084961	134.98068
1.2109375	144.97803
1.2133789	153.58784
1.2158203	161.81738
1.2182617	170.32555
1.2207031	178.96141
1.2231445	186.90135
1.2255859	193.04001
1.2280273	196.26505
1.2304688	195.63237
1.2329102	190.64276
1.2353516	181.64738
1.237793	170.11284
1.2402344	158.35971
1.2426758	148.58093
1.2451172	141.57736
1.2475586	136.32422
1.25	130.86551
1.2524414	123.55833
1.2548828	113.58794
1.2573242	100.75216
1.2597656	85.13034
1.262207	67.14237
1.2646484	48.281937
1.2670898	33.53714
1.2695312	34.25543
1.2719727	50.35939
1.2744141	71.08465
1.2768555	91.793846
1.2792969	110.79385
1.2817383	127.02406
1.2841797	139.46808
1.2866211	147.17015
1.2890625	149.49597
1.2915039	146.42267
1.2939453	138.74826
1.2963867	128.20618
1.2988281	117.44546
1.3012695	109.67622
1.3037109	107.59242
1.3061523	111.8997
1.3085938	121.09226
1.3110352	132.82753
1.3134766	145.11613
1.315918	156.5211
1.3183594	165.89883
1.3208008	172.21306
1.3232422	174.56252
1.3256836	172.31593
1.328125	165.21152
1.3305664	153.35527
1.3330078	137.15872
1.3354492	117.2875
1.3378906	94.65683
1.340332	70.46755
1.3427734	46.382195
1.3452148	25.845114
1.3476562	20.871239
1.3500977	34.448883
1.3525391	50.320755
1.3549805	63.56248
1.3574219	73.04008
1.3598633	78.734795
1.3623047	81.41138
1.3647461	82.34267
1.3671875	82.76391
1.3696289	83.285866
1.3720703	83.73479
1.3745117	83.558304
1.3769531	82.391235
1.3793945	80.34113
1.3818359	77.93021
1.3842773	75.86038
1.3867188	74.774574
1.3891602	75.09776
1.3916016	76.96347
1.394043	80.26271
1.3964844	84.817566
1.3989258	90.58421
1.4013672	97.73618
1.4038086	106.56284
1.40625	117.26213
1.4086914	129.80981
1.4111328	143.99045
1.4135742	159.57544
1.4160156	176.53456
1.418457	195.16014
1.4208984	215.98128
1.4233398	239.4099
1.4257812	265.25284
1.4282227	292.4048
1.4306641	318.9734
1.4331055	342.8095
1.4355469	362.15347
1.4379883	376.07672
1.4404297	384.50522
1.4428711	387.83728
1.4453125	386.39178
1.4477539	380.0277
1.4501953	368.17657
1.4526367	350.22095
1.4550781	325.97046
1.4575195	295.9813
1.4599609	261.60507
1.4624023	224.7976
1.4648438	187.76175
1.4672852	152.5927
1.4697266	121.21934
1.472168	96.11308
1.4746094	81.71006
1.4770508	83.09821
1.4794922	99.1457
1.4819336	123.06697
1.484375	149.04796
1.4868164	173.55043
1.4892578	194.4193
1.4916992	210.24141
1.4941406	220.11023
1.496582	223.69087
1.4990234	221.37805
1.5014648	214.25012
1.5039062	203.6351
1.5063477	190.4565
1.5087891	174.84879
1.5112305	156.4322
1.5136719	135.09421
1.5161133	111.68462
1.5185547	88.15046
1.5209961	67.052895
1.5234375	50.682648
1.5258789	40.20514
1.5283203	35.524353
1.5307617	35.995304
1.5332031	40.583218
1.5356445	47.78712
1.5380859	56.59978
1.5405273	67.28932
1.5429688	80.866135
1.5454102	97.67443
1.5478516	116.61331
1.550293	135.66844
1.5527344	152.9749
1.5551758	167.53781
1.5576172	179.26144
1.5600586	188.36746
1.5625	194.66536
1.5649414	197.30516
1.5673828	195.24376
1.5698242	188.05525
1.5722656	176.45467
1.574707	162.13762
1.5771484	146.95909
1.5795898	131.94724
1.5820312	116.95915
1.5844727	101.32702
1.5869141	84.8902
1.5893555	68.49741
1.5917969	53.643147
1.5942383	41.53844
1.5966797	32.34257
1.5991211	25.392164
1.6015625	20.220516
1.6040039	17.003515
1.6064453	16.274813
1.6088867	19.057997
1.6113281	26.110893
1.6137695	36.508232
1.6162109	48.425797
1.6186523	60.538605
1.6210938	72.9026
1.6235352	86.86409
1.6259766	103.63723
1.628418	122.65408
1.6308594	141.40288
1.6333008	156.6826
1.6357422	166.0231
1.6381836	168.52637
1.640625	164.95091
1.6430664	157.10503
1.6455078	146.84286
1.6479492	135.22653
1.6503906	122.39809
1.652832	108.17896
1.6552734	92.80752
1.6577148	77.22758
1.6601562	62.83296
1.6625977	50.902065
1.6650391	42.061012
1.6674805	36.03833
1.6699219	31.853783
1.6723633	28.37229
1.6748047	25.080996
1.6772461	22.976551
1.6796875	24.38525
1.6821289	29.765526
1.6845703	36.527634
1.6870117	41.96472
1.6894531	44.950047
1.6918945	46.48781
1.6943359	49.391087
1.6967773	56.008873
1.6992188	65.74752
1.7016602	76.01342
1.7041016	84.636215
1.706543	91.01864
1.7089844	96.045105
1.7114258	101.15661
1.7138672	107.12312
1.7163086	113.45303
1.71875	118.89316
1.7211914	122.39728
1.7236328	123.80201
1.7260742	123.93997
1.7285156	124.20936
1.730957	125.72568
1.7333984	128.51646
1.7358398	131.441
1.7382812	132.98717
1.7407227	132.34706
1.7431641	130.08047
1.7456055	127.90267
1.7480469	127.46746
1.7504883	128.85268
1.7529297	130.24782
1.7553711	129.26123
1.7578125	124.55447
1.7602539	116.68684
1.7626953	107.92429
1.7651367	101.07184
1.7675781	97.75629
1.7700195	97.5961
1.7724609	99.28991
1.7749023	102.193
1.7773438	106.60461
1.7797852	112.85464
1.7822266	120.45469
1.784668	128.1914
1.7871094	134.8344
1.7895508	139.66722
1.7919922	142.50545
1.7944336	143.35751
1.796875	142.07962
1.7993164	138.28658
1.8017578	131.55104
1.8041992	121.71243
1.8066406	109.05228
1.809082	94.215935
1.8115234	77.926994
1.8139648	60.71507
1.8164062	43.15117
1.8188477	27.938316
1.8212891	26.565071
1.8237305	43.661655
1.8261719	67.10234
1.8286133	91.50699
1.8310547	114.95393
1.8334961	136.72488
1.8359375	156.68922
1.8383789	174.78194
1.8408203	190.61734
1.8432617	203.46814
1.8457031	212.58426
1.8481445	217.5572
1.8505859	218.46155
1.8530273	215.7516
1.8554688	210.09532
1.8579102	202.35046
1.8603516	193.63802
1.862793	185.20985
1.8652344	177.86742
1.8676758	171.22948
1.8701172	163.63394
1.8725586	153.04057
1.875	138.38474
1.8774414	120.57871
1.8798828	102.71776
1.8823242	89.08219
1.8847656	82.400604
1.887207	81.3576
1.8896484	82.62876
1.8920898	84.843735
1.8945312	89.16489
1.8969727	96.66597
1.8994141	105.95126
1.9018555	113.75502
1.9042969	117.12785
1.9067383	114.91014
1.9091797	108.02734
1.9116211	98.879005
1.9140625	90.0668
1.9165039	83.028114
1.9189453	77.62361
1.9213867	73.075775
1.9238281	69.06842
1.9262695	65.85339
1.9287109	63.65674
1.9311523	62.38016
1.9335938	61.970013
1.9360352	62.890358
1.9384766	66.15649
1.940918	72.97282
1.9433594	84.19375
1.9458008	99.75793
1.9482422	118.42715
1.9506836	138.09634
1.953125	156.54427
1.9555664	172.2238
1.9580078	184.70451
1.9604492	194.5272
1.9628906	202.56802
1.965332	209.34938
1.9677734	214.79555
1.9702148	218.44539
1.9726562	219.72519
1.9750977	218.04237
1.9775391	212.9314
1.9799805	204.61458
1.9824219	194.88257
1.9848633	187.42113
1.9873047	186.30783
1.9897461	192.80992
1.9921875	203.89299
1.9946289	214.5964
1.9970703	221.27336
1.9995117	222.86385
2.0019531	220.16461
2.0043945	214.14566
2.006836	204.64806
2.0092773	190.4535
2.0117188	170.48512
2.0141602	144.96547
2.0166016	115.67492
2.019043	85.27134
2.0214844	56.194168
2.0239258	29.983181
2.0263672	9.850902
2.0288086	19.388384
2.03125	37.338566
2.0336914	52.455803
2.0361328	63.397614
2.0385742	70.0591
2.0410156	73.48364
2.043457	75.51105
2.0458984	78.037384
2.0483398	82.30519
2.0507812	88.63844
2.0532227	96.547935
2.055664	104.95132
2.0581055	112.52229
2.0605469	118.22564
2.0629883	121.83753
2.0654297	124.08976
2.067871	126.21403
2.0703125	129.05188
2.072754	132.39127
2.0751953	135.10754
2.0776367	135.90778
2.0800781	134.00146
2.0825195	129.33293
2.084961	122.40791
2.0874023	113.91176
2.0898438	104.34438
2.0922852	93.85834
2.0947266	82.393295
2.097168	69.99701
2.0996094	57.110695
2.1020508	44.594814
2.1044922	33.45682
2.1069336	24.480337
2.109375	18.389458
2.1118164	16.81194
2.1142578	20.667732
2.1166992	27.430912
2.1191406	34.128483
2.121582	38.90348
2.1240234	40.992226
2.1264648	40.711094
2.1289062	39.33028
2.1313477	38.74989
2.133789	40.934494
2.1362305	47.109203
2.1386719	57.27331
2.1411133	70.43615
2.1435547	85.0855
2.145996	99.54809
2.1484375	112.28188
2.150879	122.09077
2.1533203	128.26486
2.1557617	130.65833
2.1582031	129.70183
2.1606445	126.29617
2.163086	121.5055
2.1655273	116.13814
2.1679688	110.51734
2.1704102	104.70292
2.1728516	99.014046
2.175293	94.2681
2.1777344	91.28797
2.1801758	90.000404
2.1826172	89.188286
2.1850586	87.333855
2.1875	83.688774
2.1899414	78.69178
2.1923828	73.54745
2.1948242	69.23578
2.1972656	65.6769
2.199707	61.88092
2.2021484	56.978
2.2045898	51.1983
2.2070312	46.138577
2.2094727	43.758324
2.211914	44.13512
2.2143555	44.780876
2.2167969	42.755264
2.2192383	36.49024
2.2216797	26.224947
2.224121	13.843382
2.2265625	5.8110313
2.229004	14.338258
2.2314453	25.27881
2.2338867	37.78203
2.2363281	53.47199
2.2387695	71.86828
2.241211	90.4845
2.2436523	106.31812
2.2460938	117.16705
2.2485352	122.39231
2.2509766	123.03868
2.253418	121.2606
2.2558594	119.17804
2.2583008	117.74805
2.2607422	116.52065
2.2631836	114.4141
2.265625	110.6759
2.2680664	105.30078
2.2705078	98.87523
2.2729492	92.1721
2.2753906	85.79658
2.277832	80.04388
2.2802734	74.958534
2.2827148	70.47054
2.2851562	66.48931
2.2875977	62.908993
2.290039	59.56448
2.2924805	56.19971
2.2949219	52.509605
2.2973633	48.26029
2.2998047	43.43693
2.302246	38.34097
2.3046875	33.570988
2.307129	29.84027
2.3095703	27.644865
2.3120117	27.00301
2.3144531	27.554333
2.3168945	28.820835
2.319336	30.246809
2.3217773	31.146635
2.3242188	30.921562
2.3266602	29.667353
2.3291016	28.984177
2.331543	31.75874
2.3339844	39.18009
2.3364258	49.205177
2.3388672	59.01815
2.3413086	66.85598
2.34375	72.60566
2.3461914	77.75562
2.3486328	84.340775
2.3510742	93.11706
2.3535156	102.71388
2.355957	110.66325
2.3583984	115.00826
2.3608398	115.26127
2.3632812	112.50204
2.3657227	108.72859
2.368164	105.69192
2.3706055	103.93204
2.3730469	102.80779
2.3754883	101.39725
2.3779297	99.320145
2.380371	96.94162
2.3828125	95.11733
2.385254	94.78056
2.3876953	96.50023
2.3901367	100.11419
2.3925781	104.66698
2.3950195	108.79222
2.397461	111.31227
2.3999023	111.71927
2.4023438	110.31164
2.4047852	107.93591
2.4072266	105.46734
2.409668	103.333
2.4121094	101.40648
2.4145508	99.29718
2.4169922	96.70878
2.4194336	93.577156
2.421875	89.96045
2.4243164	85.859886
2.4267578	81.16506
2.4291992	75.76828
2.4316406	69.77832
2.434082	63.705986
2.4365234	58.531445
2.4389648	55.498512
2.4414062	55.508064
2.4438477	58.442085
2.446289	63.222862
2.4487305	68.517044
2.4511719	73.322075
2.4536133	77.18047
2.4560547	80.19514
2.458496	82.89821
2.4609375	85.92553
2.463379	89.53674
2.4658203	93.26644
2.4682617	96.02071
2.4707031	96.60404
2.4731445	94.337425
2.475586	89.46032
2.4780273	83.105576
2.4804688	76.72199
2.4829102	71.09904
2.4853516	65.71025
2.487793	59.130093
2.4902344	50.14953
2.4926758	38.60226
2.4951172	25.66556
2.4975586	15.075459
2.5	16.841412
2.5024414	28.892694
2.5048828	43.533302
2.5073242	59.121517
2.5097656	74.63893
2.512207	88.53349
2.5146484	99.09798
2.5170898	105.21808
2.5195312	106.96552
2.5219727	105.65875
2.524414	103.138
2.5268555	100.44389
2.5292969	96.948616
2.5317383	90.92463
2.5341797	81.08447
2.536621	67.8441
2.5390625	53.818768
2.541504	43.53984
2.5439453	41.031033
2.5463867	45.455704
2.5488281	53.418114
2.5512695	63.29025
2.553711	74.04015
2.5561523	83.584305
2.5585938	89.22061
2.5610352	89.03871
2.5634766	83.07656
2.565918	73.753426
2.5683594	65.18789
2.5708008	60.65344
2.5732422	59.493584
2.5756836	58.308376
2.578125	55.151268
2.5805664	51.51339
2.5830078	51.201275
2.5854492	56.162903
2.5878906	64.025665
2.590332	71.24905
2.5927734	75.8651
2.5952148	77.58598
2.5976562	76.91312
2.6000977	74.230194
2.602539	69.41215
2.6049805	62.122177
2.6074219	52.468292
2.6098633	41.630146
2.6123047	32.384224
2.614746	28.706762
2.6171875	31.376291
2.619629	36.156063
2.6220703	39.545868
2.6245117	40.687984
2.6269531	40.586857
2.6293945	40.972324
2.631836	42.68402
2.6342773	44.742958
2.6367188	45.23383
2.6391602	42.682606
2.6416016	36.71749
2.644043	28.105318
2.6464844	18.53917
2.6489258	10.712485
2.6513672	8.805878
2.6538086	11.58982
2.65625	14.349357
2.6586914	16.727278
2.6611328	19.849653
2.6635742	24.28885
2.6660156	29.64115
2.668457	35.177155
2.6708984	40.332558
2.6733398	44.812855
2.6757812	48.53256
2.6782227	51.512085
2.680664	53.75703
2.6831055	55.169315
2.6855469	55.558914
2.6879883	54.76283
2.6904297	52.775543
2.692871	49.77605
2.6953125	46.00979
2.697754	41.660248
2.7001953	36.90685
2.7026367	32.24694
2.7050781	28.855444
2.7075195	28.265398
2.709961	30.897593
2.7124023	35.541958
2.7148438	40.832413
2.7172852	46.182014
2.7197266	51.592865
2.722168	57.129513
2.7246094	62.573734
2.7270508	67.44981
2.7294922	71.26799
2.7319336	73.7705
2.734375	75.131584
2.7368164	76.160416
2.7392578	78.36201
2.7416992	83.42518
2.7441406	92.04164
2.746582	103.13893
2.7490234	114.45116
2.7514648	123.77548
2.7539062	129.97725
2.7563477	133.44469
2.758789	135.81635
2.7612305	138.91145
2.7636719	143.32533
2.7661133	147.8387
2.7685547	150.18733
2.770996	148.40092
2.7734375	141.72827
2.775879	130.88103
2.7783203	117.70834
2.7807617	104.50568
2.7832031	93.16178
2.7856445	84.49581
2.788086	78.206825
2.7905273	73.45204
2.7929688	69.47628
2.7954102	65.88168
2.7978516	62.637615
2.800293	59.99828
2.8027344	58.225426
2.8051758	57.088844
2.8076172	55.60924
2.8100586	52.510983
2.8125	47.20017
2.8149414	40.79834
2.8173828	36.709305
2.8198242	38.446907
2.8222656	44.79138
2.824707	51.48291
2.8271484	55.829464
2.8295898	57.742413
2.8320312	59.068058
2.8344727	61.77917
2.836914	65.796974
2.8393555	68.8221
2.8417969	68.19175
2.8442383	62.528778
2.8466797	52.465347
2.849121	40.902966
2.8515625	32.915134
2.854004	32.332806
2.8564453	35.79504
2.8588867	37.886623
2.8613281	36.891514
2.8637695	34.6976
2.866211	35.18451
2.8686523	40.10435
2.8710938	46.880764
2.8735352	52.04498
2.8759766	53.62112
2.878418	51.293083
2.8808594	46.00878
2.8833008	39.41633
2.8857422	33.131096
2.8881836	27.938562
2.890625	23.45902
2.8930664	18.783033
2.8955078	13.535303
2.8979492	8.968581
2.9003906	9.253891
2.902832	14.388622
2.9052734	20.469189
2.9077148	26.312674
2.9101562	32.0372
2.9125977	38.06758
2.915039	44.47904
2.9174805	50.724106
2.9199219	55.8812
2.9223633	59.16444
2.9248047	60.37574
2.927246	60.084137
2.9296875	59.401886
2.932129	59.314495
2.9345703	59.9608
2.9370117	60.554028
2.9394531	60.023033
2.9418945	57.70588
2.944336	53.645557
2.9467773	48.520298
2.9492188	43.382664
2.9516602	39.302406
2.9541016	36.912926
2.956543	36.003178
2.9589844	35.563828
2.9614258	34.378803
2.9638672	31.767635
2.9663086	28.327469
2.96875	26.583008
2.9711914	29.605177
2.9736328	36.85473
2.9760742	44.94669
2.9785156	50.98025
2.980957	53.404068
2.9833984	52.088272
2.9858398	48.337967
2.9882812	44.58197
2.9907227	43.11305
2.993164	44.10737
2.9956055	45.508522
2.9980469	45.10898
3.0004883	42.016296
3.0029297	36.94519
3.005371	32.04453
3.0078125	30.068956
3.010254	32.149883
3.0126953	36.84095
3.0151367	42.40413
3.0175781	48.11931
3.0200195	53.840443
3.022461	59.33756
3.0249023	64.032616
3.0273438	67.11119
3.0297852	67.78303
3.0322266	65.52333
3.034668	60.264244
3.0371094	52.529694
3.0395508	43.46251
3.0419922	34.611794
3.0444336	27.324131
3.046875	21.932009
3.0493164	18.083963
3.0517578	17.144667
3.0541992	21.958317
3.0566406	31.154037
3.059082	41.04642
3.0615234	48.875168
3.0639648	53.27077
3.0664062	54.507187
3.0688477	54.4437
3.071289	55.4697
3.0737305	58.493557
3.0761719	62.07921
3.0786133	63.889427
3.0810547	62.389732
3.083496	57.466248
3.0859375	50.23929
3.088379	42.4702
3.0908203	35.78849
3.0932617	30.997267
3.0957031	27.920988
3.0981445	25.950022
3.100586	24.619225
3.1030273	23.780945
3.1054688	23.645395
3.1079102	24.665527
3.1103516	26.957264
3.112793	29.829994
3.1152344	32.219257
3.1176758	33.56175
3.1201172	34.359947
3.1225586	35.942738
3.125	39.151955
3.1274414	43.18411
3.1298828	46.156197
3.1323242	46.441982
3.1347656	43.4857
3.137207	38.079163
3.1396484	32.29339
3.1420898	28.725676
3.1445312	28.30483
3.1469727	29.01173
3.149414	28.169315
3.1518555	24.371544
3.1542969	17.666546
3.1567383	9.94814
3.1591797	9.51479
3.161621	18.207985
3.1640625	27.673336
3.166504	35.9043
3.1689453	42.637264
3.1713867	48.20756
3.1738281	53.07823
3.1762695	57.49844
3.178711	61.427536
3.1811523	64.70634
3.1835938	67.24358
3.1860352	69.03695
3.1884766	70.05554
3.190918	70.16334
3.1933594	69.20007
3.1958008	67.159195
3.1982422	64.2883
3.2006836	60.99394
3.203125	57.597813
3.2055664	54.15986
3.2080078	50.54131
3.2104492	46.676815
3.2128906	42.797207
3.215332	39.40281
3.2177734	36.94367
3.2202148	35.436676
3.2226562	34.39903
3.2250977	33.190197
3.227539	31.395725
3.2299805	28.983006
3.2324219	26.230682
3.2348633	23.535076
3.2373047	21.191315
3.239746	19.282171
3.2421875	17.765114
3.244629	16.65415
3.2470703	16.07635
3.2495117	16.152122
3.2519531	16.894012
3.2543945	18.25719
3.256836	20.17548
3.2592773	22.44122
3.2617188	24.606619
3.2641602	26.086111
3.2666016	26.416225
3.269043	25.52122
3.2714844	23.889858
3.2739258	22.518843
3.2763672	22.358442
3.2788086	23.41683
3.28125	24.708397
3.2836914	25.193493
3.2861328	24.573133
3.2885742	23.65291
3.2910156	24.11788
3.293457	27.018467
3.2958984	31.377134
3.2983398	35.169865
3.3007812	36.75792
3.3032227	35.484337
3.305664	31.9298
3.3081055	28.040161
3.3105469	26.500841
3.3129883	28.216825
3.3154297	31.027016
3.317871	32.286083
3.3203125	30.615038
3.322754	25.938854
3.3251953	19.137747
3.3276367	11.673713
3.3300781	5.4291425
3.3325195	3.5898998
3.334961	4.7999396
3.3374023	4.6705313
3.3398438	4.092981
3.3422852	6.376385
3.3447266	10.774834
3.347168	15.286937
3.3496094	18.862003
3.3520508	20.931965
3.3544922	21.305464
3.3569336	20.140959
3.359375	17.892723
3.3618164	15.205078
3.3642578	12.770648
3.3666992	11.198087
3.3691406	10.882861
3.371582	11.774471
3.3740234	13.262771
3.3764648	14.44603
3.3789062	14.498588
3.3813477	12.968541
3.383789	10.048594
3.3862305	6.9959207
3.3886719	6.4808974
3.3911133	8.50313
3.3935547	10.07058
3.395996	9.937992
3.3984375	8.587855
3.400879	8.187959
3.4033203	10.36415
3.4057617	13.342241
3.4082031	15.106771
3.4106445	14.853161
3.413086	12.871507
3.4155273	10.43874
3.4179688	9.245872
3.4204102	9.449558
3.4228516	9.430319
3.425293	8.355866
3.4277344	7.480694
3.4301758	9.27209
3.4326172	12.94295
3.4350586	16.087673
3.4375	17.319948
3.4399414	16.350664
3.4423828	14.127312
3.4448242	13.002511
3.4472656	14.885662
3.449707	18.323719
3.4521484	20.893618
3.4545898	21.238104
3.4570312	19.021807
3.4594727	14.742604
3.461914	9.7946205
3.4643555	7.339802
3.4667969	9.782917
3.4692383	13.517329
3.4716797	16.30082
3.474121	17.742912
3.4765625	18.106825
3.479004	17.867558
3.4814453	17.426922
3.4838867	16.964375
3.4863281	16.48127
3.4887695	15.951702
3.491211	15.421614
3.4936523	14.991415
3.4960938	14.717408
3.4985352	14.506831
3.5009766	14.085218
3.503418	13.069493
3.5058594	11.128257
3.5083008	8.218087
3.5107422	5.1817417
3.5131836	5.3933725
3.515625	9.077653
3.5180664	12.710558
3.5205078	14.753535
3.5229492	14.548696
3.5253906	12.191061
3.527832	9.097601
3.5302734	9.087267
3.5327148	13.363441
3.5351562	18.304518
3.5375977	21.707447
3.540039	22.767368
3.5424805	21.650148
3.5449219	19.438667
3.5473633	17.862568
3.5498047	18.097767
3.552246	19.427986
3.5546875	20.19144
3.557129	19.291418
3.5595703	16.558403
3.5620117	12.663651
3.5644531	9.099256
3.5668945	7.8470736
3.569336	8.716835
3.5717773	9.340418
3.5742188	8.453048
3.5766602	5.963472
3.5791016	2.421041
3.581543	1.3087264
3.5839844	4.3110895
3.5864258	5.876911
3.5888672	5.732391
3.5913086	4.3876705
3.59375	4.171356
3.5961914	6.8488154
3.5986328	10.190297
3.6010742	12.727367
3.6035156	13.932121
3.605957	13.960093
3.6083984	13.627308
3.6108398	14.054719
3.6132812	15.689503
3.6157227	17.869698
3.618164	19.610456
3.6206055	20.260046
3.6230469	19.63597
3.6254883	17.97882
3.6279297	15.853659
3.630371	13.967397
3.6328125	12.800268
3.635254	12.202623
3.6376953	11.515395
3.6401367	10.136835
3.6425781	7.943644
3.6450195	5.6987705
3.647461	5.648374
3.6499023	8.216925
3.6523438	11.032859
3.6547852	12.700902
3.6572266	12.628164
3.659668	10.809997
3.6621094	8.038597
3.6645508	6.639047
3.6669922	8.735563
3.6694336	12.043544
3.671875	14.40553
3.6743164	15.023444
3.6767578	13.891221
3.6791992	11.621831
3.6816406	9.30281
3.684082	8.0129595
3.6865234	7.7302556
3.6889648	7.369983
3.6914062	6.1786513
3.6938477	4.161754
3.696289	1.9484935
3.6987305	1.5912284
3.7011719	2.8096523
3.7036133	3.3282752
3.7060547	2.940668
3.708496	1.9294229
3.7109375	0.8053301
3.713379	0.64261866
3.7158203	1.2298459
3.7182617	2.004178
3.7207031	3.3715508
3.7231445	5.244628
3.725586	7.214944
3.7280273	8.842921
3.7304688	9.775766
3.7329102	9.824309
3.7353516	9.030084
3.737793	7.7343035
3.7402344	6.6182046
3.7426758	6.4047055
3.7451172	6.998851
3.7475586	7.5750012
3.75	7.5053945
3.7524414	6.65182
3.7548828	5.369534
3.7573242	4.5206976
3.7597656	4.8405557
3.762207	5.732203
3.7646484	6.259618
3.7670898	6.1173058
3.7695312	5.7945156
3.7719727	6.566282
3.774414	9.03734
3.7768555	12.39144
3.7792969	15.680781
3.7817383	18.26782
3.7841797	19.846916
3.786621	20.47167
3.7890625	20.525118
3.791504	20.5337
3.7939453	20.83325
3.7963867	21.333088
3.7988281	21.646055
3.8012695	21.43557
3.803711	20.65655
3.8061523	19.578398
3.8085938	18.617182
3.8110352	18.057009
3.8134766	17.855707
3.815918	17.72043
3.8183594	17.339773
3.8208008	16.53206
3.8232422	15.254987
3.8256836	13.558181
3.828125	11.549843
3.8305664	9.40641
3.8330078	7.4146094
3.8354492	5.9885707
3.8378906	5.4430985
3.840332	5.512702
3.8427734	5.527469
3.8452148	5.005604
3.8476562	3.8152442
3.8500977	2.213379
3.852539	1.5961571
3.8549805	3.0092466
3.8574219	4.3728256
3.8598633	4.9364057
3.8623047	4.4884233
3.864746	3.104473
3.8671875	1.2097083
3.869629	1.6186414
3.8720703	3.5825357
3.8745117	5.0182276
3.8769531	5.6694727
3.8793945	5.607141
3.881836	5.156806
3.8842773	4.7270904
3.8867188	4.464509
3.8891602	4.102859
3.8916016	3.2973642
3.894043	2.0096383
3.8964844	1.3155348
3.8989258	2.794704
3.9013672	4.4978437
3.9038086	5.63247
3.90625	5.9443607
3.9086914	5.471002
3.9111328	4.5563173
3.9135742	3.8255045
3.9160156	3.776007
3.918457	4.094551
3.9208984	4.17665
3.9233398	3.8340445
3.9257812	3.3742945
3.9282227	3.3789876
3.930664	3.9130049
3.9331055	4.391796
3.9355469	4.3529844
3.9379883	3.7275147
3.9404297	2.93839
3.942871	2.952777
3.9453125	3.958909
3.947754	5.044433
3.9501953	5.6345034
3.9526367	5.577514
3.9550781	5.0158386
3.9575195	4.298221
3.959961	3.8016477
3.9624023	3.6122887
3.9648438	3.4612024
3.9672852	3.09954
3.9697266	2.5520706
3.972168	2.135727
3.9746094	2.1900225
3.9770508	2.5349612
3.9794922	2.7787747
3.9819336	2.7736902
3.984375	2.6163542
3.9868164	2.5350108
3.9892578	2.6633728
3.9916992	2.8817086
3.9941406	2.9793172
3.996582	2.8369272
3.9990234	2.4580116
4.001465	1.9363467
4.0039062	1.4057454
4.0063477	0.97485846
4.008789	0.6550949
4.0112305	0.3884007
4.013672	0.38644087
4.0161133	0.81234735
4.0185547	1.3266345
4.020996	1.7649434
4.0234375	2.02388
4.025879	2.0511441
4.0283203	1.8683666
4.0307617	1.6031238
4.033203	1.5025609
4.0356445	1.7333068
4.038086	2.1456366
4.0405273	2.525446
4.0429688	2.7718203
4.04541	2.8847888
4.0478516	2.924322
4.050293	2.955921
4.0527344	2.9997525
4.055176	3.0241315
4.057617	2.984316
4.0600586	2.8598535
4.0625	2.6610994
4.0649414	2.4109807
4.067383	2.124391
4.069824	1.805044
4.0722656	1.4622573
4.074707	1.1306733
4.0771484	0.8750521
4.07959	0.75732857
4.0820312	0.7669651
4.0844727	0.8426348
4.086914	0.9550312
4.0893555	1.0915864
4.091797	1.2175275
4.0942383	1.2835004
4.0966797	1.2554191
4.099121	1.1341959
4.1015625	0.9588891
4.104004	0.7918634
4.1064453	0.6793417
4.1088867	0.6059697
4.111328	0.5149116
4.1137695	0.36959076
4.116211	0.17440058
4.1186523	0.058108643
4.1210938	0.25027737
4.123535	0.4004783
4.1259766	0.48321187
4.128418	0.49561113
4.1308594	0.44749352
4.133301	0.3549298
4.135742	0.23436211
4.1381836	0.098961145
4.140625	0.042489927
4.1430664	0.17947306
4.145508	0.3031253
4.147949	0.40028864
4.1503906	0.45760587
4.152832	0.46566018
4.1552734	0.42379957
4.157715	0.3436796
4.1601562	0.25037998
4.1625977	0.18140619
4.165039	0.16675992
4.1674805	0.1895297
4.169922	0.22993262
4.1723633	0.29322708
4.1748047	0.3737835
4.177246	0.44619069
4.1796875	0.4829136
4.182129	0.46921548
4.1845703	0.4115323
4.1870117	0.34211922
4.189453	0.31149712
4.1918945	0.3380445
4.194336	0.38304555
4.1967773	0.4146468
4.1992188	0.4364395
4.20166	0.47112375
4.2041016	0.52768177
4.206543	0.58597124
4.2089844	0.6150547
4.211426	0.5935624
4.213867	0.51757056
4.2163086	0.40002632
4.21875	0.26720682
4.2211914	0.15878373
4.223633	0.12765841
4.226074	0.15242985
4.2285156	0.16469327
4.230957	0.14784007
4.2333984	0.1083474
4.23584	0.05780888
4.2382812	0.0077226413
4.2407227	0.04371938
4.243164	0.08728797
4.2456055	0.12490458
4.248047	0.15363039
4.2504883	0.16943161
4.2529297	0.16933519
4.255371	0.15308055
4.2578125	0.12367963
4.260254	0.08669681
4.2626953	0.049545635
4.2651367	0.026663175
4.267578	0.039864216
4.2700195	0.06510395
4.272461	0.09201724
4.2749023	0.12078252
4.2773438	0.15010066
4.279785	0.17561167
4.2822266	0.19145818
4.284668	0.1925663
4.2871094	0.17680193
4.289551	0.1471405
4.291992	0.1142163
4.2944336	0.09846451
4.296875	0.11172134
4.2993164	0.13575506
4.301758	0.15177529
4.304199	0.15352623
4.3066406	0.14347745
4.309082	0.12905578
4.3115234	0.11735111
4.313965	0.10899523
4.3164062	0.098464996
4.3188477	0.08107082
4.321289	0.057841484
4.3237305	0.036885943
4.326172	0.031284887
4.3286133	0.035237566
4.3310547	0.032043476
4.333496	0.017490048
4.3359375	0.009747096
4.338379	0.03458726
4.3408203	0.056641698
4.3432617	0.070390604
4.345703	0.07658684
4.3481445	0.08212789
4.350586	0.094940975
4.3530273	0.11431202
4.3554688	0.13214506
4.35791	0.14063115
4.3603516	0.13594085
4.362793	0.11898148
4.3652344	0.09507961
4.367676	0.073399514
4.370117	0.063610695
4.3725586	0.06549857
4.375	0.068856575
4.3774414	0.06705629
4.379883	0.05950336
4.382324	0.049318794
4.3847656	0.04075973
4.387207	0.036655992
4.3896484	0.035997044
4.39209	0.036105283
4.3945312	0.035581682
4.3969727	0.034351725
4.399414	0.032306284
4.4018555	0.029120639
4.404297	0.024460856
4.4067383	0.018584475
4.4091797	0.012245256
4.411621	0.006722528
4.4140625	0.0034778554
4.416504	0.0030143587
4.4189453	0.0026526672
4.4213867	0.0021726843
4.423828	0.004274822
4.4262695	0.0078496775
4.428711	0.011534155
4.4311523	0.014526745
4.4335938	0.016183514
4.436035	0.016083345
4.4384766	0.014037684
4.440918	0.010219965
4.4433594	0.005333734
4.445801	0.002594312
4.448242	0.006869195
4.4506836	0.011057826
4.453125	0.01371933
4.4555664	0.014482674
4.458008	0.013406449
4.460449	0.010932392
4.4628906	0.0077816206
4.465332	0.005511567
4.4677734	0.005979261
4.470215	0.007902173
4.4726562	0.009372016
4.4750977	0.0096082995
4.477539	0.008536205
4.4799805	0.00642258
4.482422	0.004033586
4.4848633	0.0028869954
4.4873047	0.0038081463
4.489746	0.004790085
4.4921875	0.004857122
4.494629	0.003974177
4.4970703	0.0023835178
4.4995117	5.970478E-4
4.501953	0.0012078872
4.5043945	0.002220214
4.506836	0.0024495258
4.5092773	0.0019834666
4.5117188	0.0010510859
4.51416	1.3486776E-4
4.5166016	9.566081E-4
4.519043	0.0014433913
4.5214844	0.0015065332
4.523926	0.0012014521
4.526367	7.501104E-4
4.5288086	5.77583E-4
4.53125	7.5818E-4
4.5336914	8.6473726E-4
4.536133	7.7481184E-4
4.538574	6.3369074E-4
4.5410156	6.687465E-4
4.543457	8.898649E-4
4.5458984	0.0010864269
4.54834	0.0011699627
4.5507812	0.0011186732
4.5532227	9.4950874E-4
4.555664	7.3850976E-4
4.5581055	4.894059E-4
4.560547	2.7950254E-4
4.5629883	2.3915512E-4
4.5654297	3.4511206E-4
4.567871	3.8947893E-4
4.5703125	3.8864109E-4
4.572754	3.4503615E-4
4.5751953	4.5250478E-4
4.5776367	6.5524376E-4
4.580078	8.079727E-4
4.5825195	8.77528E-4
4.584961	8.426942E-4
4.5874023	6.834371E-4
4.5898438	5.1040365E-4
4.592285	3.597211E-4
4.5947266	2.9360384E-4
4.597168	2.3048854E-4
4.5996094	1.753367E-4
4.602051	1.1917495E-4
4.604492	5.8148802E-5
4.6069336	5.3666707E-5
4.609375	8.156765E-5
4.6118164	1.7057799E-4
4.614258	2.6683693E-4
4.616699	3.3504076E-4
4.6191406	3.2705106E-4
4.621582	2.7650004E-4
4.6240234	1.7700196E-4
4.626465	1.2545657E-4
4.6289062	1.6094226E-4
4.6313477	2.1268717E-4
4.633789	2.2683821E-4
4.6362305	1.9476337E-4
4.638672	2.1693791E-4
4.6411133	2.2896448E-4
4.6435547	2.2275743E-4
4.645996	1.7765845E-4
4.6484375	1.343835E-4
4.650879	1.8629477E-4
4.6533203	2.4397369E-4
4.6557617	2.952487E-4
4.658203	3.0864673E-4
4.6606445	2.7909927E-4
4.663086	2.4719827E-4
4.6655273	2.3607799E-4
4.6679688	2.719494E-4
4.67041	2.957473E-4
4.6728516	3.0974238E-4
4.675293	2.9997496E-4
4.6777344	2.6161593E-4
4.680176	2.2702361E-4
4.682617	1.751212E-4
4.6850586	1.5118528E-4
4.6875	1.243568E-4
4.6899414	1.080792E-4
4.692383	1.3123445E-4
4.694824	1.415006E-4
4.6972656	1.5657183E-4
4.699707	1.6286926E-4
4.7021484	1.8643842E-4
4.70459	2.031483E-4
4.7070312	2.0506473E-4
4.7094727	1.9376494E-4
4.711914	1.5321223E-4
4.7143555	9.553513E-5
4.716797	4.967902E-5
4.7192383	7.2735784E-5
4.7216797	1.3510708E-4
4.724121	1.9533634E-4
4.7265625	2.2743788E-4
4.729004	2.406297E-4
4.7314453	2.2057793E-4
4.7338867	1.8314927E-4
4.736328	1.2984325E-4
4.7387695	6.818818E-5
4.741211	6.1035157E-6
4.7436523	5.214846E-5
4.7460938	8.7933535E-5
4.748535	1.2148778E-4
4.7509766	1.3583752E-4
4.753418	1.2026404E-4
4.7558594	8.615475E-5
4.758301	6.972866E-5
4.760742	6.074838E-5
4.7631836	7.53883E-5
4.765625	9.0375324E-5
4.7680664	1.1094147E-4
4.770508	1.3520237E-4
4.772949	1.4686733E-4
4.7753906	1.1744312E-4
4.777832	1.0076579E-4
4.7802734	7.8771416E-5
4.782715	7.179844E-5
4.7851562	8.275344E-5
4.7875977	9.250464E-5
4.790039	1.0661516E-4
4.7924805	1.1905034E-4
4.794922	1.0752034E-4
4.7973633	1.0676809E-4
4.7998047	1.1924835E-4
4.802246	9.197456E-5
4.8046875	6.9188136E-5
4.807129	7.934571E-5
4.8095703	5.3753403E-5
4.8120117	3.1285752E-5
4.814453	2.7595323E-5
4.8168945	1.5258789E-5
4.819336	3.9702187E-5
4.8217773	3.768643E-5
4.8242188	4.9982726E-5
4.82666	3.882052E-5
4.8291016	2.607423E-5
4.831543	1.8625726E-5
4.8339844	1.9301011E-5
4.836426	1.8006018E-5
4.838867	3.5476685E-5
4.8413086	4.403952E-5
4.84375	4.1899202E-5
4.8461914	4.981942E-5
4.848633	4.552134E-5
4.851074	5.7848032E-5
4.8535156	3.7331447E-5
4.855957	4.6334048E-5
4.8583984	2.4740451E-5
4.86084	1.4878542E-5
4.8632812	2.527237E-5
4.8657227	3.507966E-5
4.868164	3.5915557E-5
4.8706055	3.5932677E-5
4.873047	4.0292514E-5
4.8754883	2.5109768E-5
4.8779297	4.0873038E-5
4.880371	3.8821927E-5
4.8828125	5.159616E-5
4.885254	5.4513144E-5
4.8876953	5.013253E-5
4.8901367	3.7059668E-5
4.892578	3.607865E-5
4.8950195	3.255314E-5
4.897461	1.69443E-5
4.8999023	2.2831091E-5
4.9023438	1.705238E-5
4.904785	2.1621765E-5
4.9072266	1.7247537E-5
4.909668	2.364497E-5
4.9121094	1.3754087E-6
4.914551	1.6794418E-5
4.916992	2.0321322E-5
4.9194336	4.516884E-5
4.921875	2.2353928E-5
4.9243164	1.8899122E-5
4.926758	2.5410813E-5
4.929199	5.6374724E-6
4.9316406	1.5362044E-5
4.934082	1.5145117E-5
4.9365234	9.030369E-6
4.938965	9.7005895E-6
4.9414062	6.685359E-6
4.9438477	6.7017254E-6
4.946289	3.6439844E-6
4.9487305	3.8396497E-6
4.951172	5.425057E-6
4.9536133	3.6837023E-6
4.9560547	5.182411E-6
4.958496	1.8665967E-5
4.9609375	7.2026983E-6
4.963379	5.5123696E-6
4.9658203	1.1066321E-5
4.9682617	6.875059E-6
4.970703	1.5507108E-5
4.9731445	9.15726E-6
4.975586	2.5429506E-5
4.9780273	2.1495058E-5
4.9804688	1.1462183E-5
4.98291	2.1526228E-5
4.9853516	1.4405297E-5
4.987793	2.5066402E-5
4.9902344	1.0091389E-5
4.992676	2.62009E-5
4.995117	7.6076826E-6
4.9975586	3.7543246E-5



DATASET #3

Name: EAS (cm/s)
Num Points: 2044
Info: 

X, Y Data:
0.009765625	1.2164457
0.012207031	1.5495632
0.014648438	1.8929099
0.017089844	2.239358
0.01953125	2.5777314
0.021972656	2.8937528
0.024414062	3.1722727
0.026855469	3.400443
0.029296875	3.5709167
0.03173828	3.6843946
0.034179688	3.7509089
0.036621094	3.7887447
0.0390625	3.8205247
0.041503906	3.8663654
0.043945312	3.9361494
0.04638672	4.0239015
0.048828125	4.108076
0.05126953	4.1581244
0.053710938	4.1450505
0.056152344	4.051845
0.05859375	3.8827035
0.061035156	3.6708722
0.06347656	3.4861925
0.06591797	3.434037
0.068359375	3.624165
0.07080078	4.1093645
0.07324219	4.8601427
0.075683594	5.8026366
0.078125	6.8602414
0.080566406	7.9704175
0.08300781	9.088319
0.08544922	10.185724
0.087890625	11.247511
0.09033203	12.265701
0.09277344	13.233915
0.095214844	14.144731
0.09765625	14.990646
0.10009766	15.765978
0.10253906	16.466131
0.10498047	17.082945
0.10742188	17.59966
0.10986328	17.991266
0.11230469	18.232483
0.11474609	18.309122
0.1171875	18.224611
0.11962891	17.996553
0.12207031	17.645971
0.12451172	17.189646
0.12695312	16.644672
0.12939453	16.04504
0.13183594	15.45899
0.13427734	14.994772
0.13671875	14.791491
0.13916016	15.000515
0.14160156	15.760307
0.14404297	17.15901
0.14648438	19.192036
0.14892578	21.744354
0.15136719	24.617142
0.1538086	27.583012
0.15625	30.440105
0.1586914	33.04307
0.16113281	35.30463
0.16357422	37.17784
0.16601562	38.639507
0.16845703	39.692993
0.17089844	40.38938
0.17333984	40.845806
0.17578125	41.231846
0.17822266	41.714
0.18066406	42.3841
0.18310547	43.22129
0.18554688	44.116875
0.18798828	44.9392
0.19042969	45.589108
0.1928711	46.01775
0.1953125	46.216427
0.1977539	46.207645
0.20019531	46.056175
0.20263672	45.88893
0.20507812	45.892902
0.20751953	46.267296
0.20996094	47.143826
0.21240234	48.527107
0.21484375	50.300087
0.21728516	52.28572
0.21972656	54.313812
0.22216797	56.25361
0.22460938	58.011925
0.22705078	59.521717
0.22949219	60.74389
0.2319336	61.683544
0.234375	62.402798
0.2368164	63.008827
0.23925781	63.612514
0.24169922	64.27777
0.24414062	64.99605
0.24658203	65.70536
0.24902344	66.33835
0.25146484	66.86214
0.25390625	67.28135
0.25634766	67.60874
0.25878906	67.83709
0.26123047	67.945786
0.26367188	67.94364
0.26611328	67.90962
0.2685547	67.98421
0.2709961	68.29739
0.2734375	68.876045
0.2758789	69.60402
0.2783203	70.273125
0.28076172	70.68691
0.28320312	70.74243
0.28564453	70.44181
0.28808594	69.84413
0.29052734	69.010086
0.29296875	67.98968
0.29541016	66.8579
0.29785156	65.75182
0.30029297	64.85014
0.30273438	64.281685
0.30517578	64.02035
0.3076172	63.8551
0.3100586	63.469994
0.3125	62.578426
0.3149414	61.02508
0.3173828	58.80793
0.31982422	56.03164
0.32226562	52.840057
0.32470703	49.37985
0.32714844	45.816223
0.32958984	42.37566
0.33203125	39.358463
0.33447266	37.076298
0.33691406	35.733116
0.33935547	35.3481
0.34179688	35.810966
0.34423828	37.02391
0.3466797	38.9942
0.3491211	41.809315
0.3515625	45.538094
0.3540039	50.14229
0.3564453	55.447903
0.35888672	61.174213
0.36132812	66.99639
0.36376953	72.61402
0.36621094	77.79429
0.36865234	82.36063
0.37109375	86.126686
0.37353516	88.822685
0.37597656	90.08696
0.37841797	89.56351
0.38085938	87.07773
0.38330078	82.808716
0.3857422	77.37389
0.3881836	71.77431
0.390625	67.18995
0.3930664	64.660355
0.3955078	64.761086
0.39794922	67.44594
0.40039062	72.12166
0.40283203	77.84122
0.40527344	83.50858
0.40771484	88.08595
0.41015625	90.79025
0.41259766	91.22377
0.41503906	89.39267
0.41748047	85.61844
0.41992188	80.404076
0.42236328	74.33261
0.4248047	68.03371
0.4272461	62.16349
0.4296875	57.287148
0.4321289	53.63351
0.4345703	50.90644
0.43701172	48.406425
0.43945312	45.41165
0.44189453	41.50647
0.44433594	36.675594
0.44677734	31.224264
0.44921875	25.6943
0.45166016	20.950233
0.45410156	18.386822
0.45654297	19.287376
0.45898438	23.144835
0.46142578	28.273832
0.4638672	33.374096
0.4663086	37.757526
0.46875	41.15958
0.4711914	43.57733
0.4736328	45.150455
0.47607422	46.092045
0.47851562	46.66128
0.48095703	47.12625
0.48339844	47.6703
0.48583984	48.276108
0.48828125	48.693127
0.49072266	48.549202
0.49316406	47.543297
0.49560547	45.60268
0.49804688	42.93659
0.5004883	39.98631
0.5029297	37.323734
0.5053711	35.564423
0.5078125	35.308235
0.5102539	37.013344
0.5126953	40.756935
0.5151367	46.098488
0.5175781	52.23902
0.52001953	58.345787
0.52246094	63.84109
0.52490234	68.554756
0.52734375	72.681786
0.52978516	76.544624
0.53222656	80.29575
0.53466797	83.791756
0.5371094	86.74752
0.5395508	89.02125
0.5419922	90.76791
0.5444336	92.321785
0.546875	93.90298
0.5493164	95.410446
0.5517578	96.48479
0.5541992	96.74305
0.5566406	95.93681
0.55908203	93.90939
0.56152344	90.45051
0.56396484	85.24354
0.56640625	77.99396
0.56884766	68.65128
0.57128906	57.588577
0.57373047	45.744682
0.5761719	35.017708
0.5786133	29.180319
0.5810547	32.145798
0.5834961	41.858067
0.5859375	53.7806
0.5883789	65.292984
0.5908203	75.2497
0.5932617	83.39735
0.5957031	90.05887
0.59814453	95.82907
0.60058594	101.35127
0.60302734	107.29074
0.60546875	114.38954
0.60791016	123.32174
0.61035156	134.30038
0.61279297	146.79182
0.6152344	159.6683
0.6176758	171.66388
0.6201172	181.7449
0.6225586	189.18037
0.625	193.40198
0.6274414	193.90517
0.6298828	190.36829
0.6323242	182.93704
0.6347656	172.4374
0.63720703	160.28755
0.63964844	148.07584
0.64208984	137.03822
0.64453125	127.80248
0.64697266	120.5204
0.64941406	115.04955
0.65185547	110.81864
0.6542969	106.58143
0.6567383	100.59768
0.6591797	91.31466
0.6616211	78.100494
0.6640625	61.701923
0.6665039	44.73583
0.6689453	33.520535
0.6713867	37.20426
0.6738281	52.61753
0.67626953	71.36328
0.67871094	89.52735
0.68115234	105.01967
0.68359375	116.30662
0.68603516	122.38495
0.68847656	122.99718
0.69091797	118.69098
0.6933594	110.6109
0.6958008	100.10409
0.6982422	88.34721
0.7006836	76.1924
0.703125	64.2714
0.7055664	53.187443
0.7080078	43.575108
0.7104492	35.977554
0.7128906	30.745272
0.71533203	28.194256
0.71777344	28.749289
0.72021484	32.47706
0.72265625	38.605064
0.72509766	45.839123
0.72753906	52.82031
0.72998047	58.30677
0.7324219	61.281544
0.7348633	61.136784
0.7373047	57.94092
0.7397461	52.75214
0.7421875	47.92171
0.7446289	46.892826
0.7470703	52.232857
0.7495117	63.49527
0.7519531	78.55799
0.75439453	95.47454
0.75683594	112.67369
0.75927734	128.74438
0.76171875	142.44704
0.76416016	152.88095
0.76660156	159.62016
0.76904297	162.70924
0.7714844	162.53697
0.7739258	159.68626
0.7763672	154.84636
0.7788086	148.79558
0.78125	142.3833
0.7836914	136.43375
0.7861328	131.57008
0.7885742	128.03033
0.7910156	125.57815
0.79345703	123.56165
0.79589844	121.12117
0.79833984	117.49802
0.80078125	112.35947
0.80322266	106.01387
0.80566406	99.376366
0.80810547	93.594864
0.8105469	89.44676
0.8129883	86.92478
0.8154297	85.429115
0.8178711	84.39335
0.8203125	83.74665
0.8227539	83.85634
0.8251953	85.06447
0.8276367	87.23243
0.8300781	89.69282
0.83251953	91.61283
0.83496094	92.441025
0.83740234	92.15212
0.83984375	91.2158
0.84228516	90.36489
0.84472656	90.34687
0.84716797	91.83341
0.8496094	95.45293
0.8520508	101.69489
0.8544922	110.59309
0.8569336	121.50252
0.859375	133.2628
0.8618164	144.60754
0.8642578	154.4777
0.8666992	162.08667
0.8691406	166.84045
0.87158203	168.31726
0.87402344	166.41972
0.87646484	161.6126
0.87890625	155.01785
0.88134766	148.17288
0.88378906	142.46788
0.88623047	138.58519
0.8886719	136.348
0.8911133	135.00742
0.8935547	133.58388
0.8959961	131.01003
0.8984375	126.21551
0.9008789	118.35598
0.9033203	107.14012
0.9057617	93.03568
0.9082031	77.23183
0.91064453	61.491882
0.91308594	48.277214
0.91552734	41.16367
0.91796875	43.007328
0.92041016	51.69966
0.92285156	62.637684
0.92529297	72.63359
0.9277344	80.109795
0.9301758	84.54581
0.9326172	85.976074
0.9350586	84.54667
0.9375	80.3472
0.9399414	73.66995
0.9423828	65.52746
0.9448242	57.984024
0.9472656	53.610756
0.94970703	53.60873
0.95214844	56.564857
0.95458984	60.041965
0.95703125	62.474567
0.95947266	63.423584
0.96191406	63.038136
0.96435547	61.625828
0.9667969	59.6343
0.9692383	57.850468
0.9716797	57.356567
0.9741211	58.99334
0.9765625	62.76491
0.9790039	67.891525
0.9814453	73.34241
0.9838867	78.196594
0.9863281	81.715744
0.98876953	83.37821
0.99121094	82.99536
0.99365234	80.79878
0.99609375	77.34027
0.99853516	73.19062
1.0009766	68.6491
1.003418	63.73833
1.0058594	58.49852
1.0083008	53.291645
1.0107422	48.859585
1.0131836	46.164436
1.015625	46.161674
1.0180664	49.463604
1.0205078	55.89837
1.0229492	64.44482
1.0253906	73.734276
1.027832	82.64065
1.0302734	90.5395
1.0327148	97.141136
1.0351562	102.0862
1.0375977	104.69233
1.0400391	104.11678
1.0424805	99.807594
1.0449219	91.88049
1.0473633	81.15367
1.0498047	68.84606
1.0522461	56.197716
1.0546875	44.39842
1.0571289	35.0705
1.0595703	30.69996
1.0620117	32.593628
1.0644531	38.35713
1.0668945	44.84091
1.0693359	50.542515
1.0717773	55.374966
1.0742188	60.000816
1.0766602	65.188385
1.0791016	71.273964
1.081543	77.93564
1.0839844	84.40158
1.0864258	89.95549
1.0888672	94.43211
1.0913086	98.36193
1.09375	102.53938
1.0961914	107.2454
1.0986328	111.84279
1.1010742	115.19409
1.1035156	116.45678
1.105957	115.51771
1.1083984	112.78587
1.1108398	108.6457
1.1132812	103.17382
1.1157227	96.462204
1.1181641	89.23407
1.1206055	83.07291
1.1230469	79.818825
1.1254883	80.48639
1.1279297	84.86229
1.1303711	92.08092
1.1328125	100.99043
1.1352539	109.94056
1.1376953	116.81671
1.1401367	119.68622
1.1425781	117.61335
1.1450195	111.08329
1.1474609	101.77944
1.1499023	91.87064
1.1523438	83.42888
1.1547852	78.66404
1.1572266	80.3539
1.159668	90.330215
1.1621094	107.16915
1.1645508	127.04216
1.1669922	146.145
1.1694336	161.98448
1.171875	173.51106
1.1743164	180.57515
1.1767578	183.15384
1.1791992	180.89313
1.1816406	173.28209
1.184082	160.26035
1.1865234	142.7369
1.1889648	122.6595
1.1914062	102.6469
1.1938477	85.51082
1.1962891	73.99044
1.1987305	70.296936
1.2011719	74.67772
1.2036133	84.744644
1.2060547	97.23346
1.2084961	109.74324
1.2109375	121.19777
1.2133789	131.5737
1.2158203	141.28525
1.2182617	150.56866
1.2207031	159.21347
1.2231445	166.67267
1.2255859	172.2844
1.2280273	175.38895
1.2304688	175.39905
1.2329102	171.98203
1.2353516	165.36066
1.237793	156.50806
1.2402344	146.95116
1.2426758	138.09737
1.2451172	130.44035
1.2475586	123.32717
1.25	115.53995
1.2524414	106.11723
1.2548828	94.73661
1.2573242	81.58483
1.2597656	67.12737
1.262207	52.275112
1.2646484	39.4135
1.2670898	34.134743
1.2695312	40.882046
1.2719727	55.093697
1.2744141	71.51559
1.2768555	87.9555
1.2792969	103.56026
1.2817383	117.66927
1.2841797	129.40349
1.2866211	137.79333
1.2890625	142.19778
1.2915039	142.6922
1.2939453	140.18285
1.2963867	136.16681
1.2988281	132.2284
1.3012695	129.5447
1.3037109	128.69646
1.3061523	129.82854
1.3085938	132.87006
1.3110352	137.53487
1.3134766	143.18112
1.315918	148.80437
1.3183594	153.26553
1.3208008	155.60558
1.3232422	155.24326
1.3256836	151.96953
1.328125	145.79677
1.3305664	136.79808
1.3330078	125.06692
1.3354492	110.83007
1.3378906	94.64697
1.340332	77.60487
1.3427734	61.512627
1.3452148	49.145042
1.3476562	43.846752
1.3500977	46.606968
1.3525391	54.363117
1.3549805	63.654446
1.3574219	72.61472
1.3598633	80.467476
1.3623047	86.907196
1.3647461	91.79139
1.3671875	95.05114
1.3696289	96.72633
1.3720703	97.00244
1.3745117	96.15217
1.3769531	94.398705
1.3793945	91.83095
1.3818359	88.49742
1.3842773	84.632706
1.3867188	80.809715
1.3891602	77.83263
1.3916016	76.38369
1.394043	76.718994
1.3964844	78.71459
1.3989258	82.18505
1.4013672	87.12401
1.4038086	93.69873
1.40625	102.09692
1.4086914	112.38299
1.4111328	124.42201
1.4135742	137.91707
1.4160156	152.57166
1.418457	168.3088
1.4208984	185.36475
1.4233398	204.08224
1.4257812	224.44272
1.4282227	245.65785
1.4306641	266.1689
1.4331055	284.1072
1.4355469	297.9363
1.4379883	306.92337
1.4404297	311.19754
1.4428711	311.3786
1.4453125	307.99323
1.4477539	301.0445
1.4501953	290.02783
1.4526367	274.36026
1.4550781	253.93192
1.4575195	229.455
1.4599609	202.44771
1.4624023	174.88914
1.4648438	148.69249
1.4672852	125.27023
1.4697266	105.52681
1.472168	90.482864
1.4746094	82.043686
1.4770508	82.35133
1.4794922	91.28276
1.4819336	105.91912
1.484375	122.85927
1.4868164	139.63692
1.4892578	154.65234
1.4916992	166.73917
1.4941406	174.94962
1.496582	178.66606
1.4990234	177.85025
1.5014648	173.10838
1.5039062	165.36623
1.5063477	155.28455
1.5087891	142.87291
1.5112305	127.70943
1.5136719	109.68406
1.5161133	89.73724
1.5185547	70.117226
1.5209961	53.93754
1.5234375	43.753445
1.5258789	39.551975
1.5283203	39.374855
1.5307617	42.406403
1.5332031	48.773224
1.5356445	57.44751
1.5380859	66.63914
1.5405273	75.50639
1.5429688	84.78996
1.5454102	95.87652
1.5478516	109.15288
1.550293	123.38516
1.5527344	136.63213
1.5551758	147.4801
1.5576172	155.55399
1.5600586	161.15996
1.5625	164.5094
1.5649414	165.23701
1.5673828	162.62823
1.5698242	156.31248
1.5722656	146.79305
1.574707	135.3845
1.5771484	123.5647
1.5795898	112.17754
1.5820312	101.15092
1.5844727	89.99965
1.5869141	78.6332
1.5893555	67.75223
1.5917969	58.54481
1.5942383	51.877495
1.5966797	47.608498
1.5991211	44.752857
1.6015625	42.28842
1.6040039	39.73249
1.6064453	37.32733
1.6088867	36.067745
1.6113281	37.235302
1.6137695	41.188255
1.6162109	46.91146
1.6186523	53.204384
1.6210938	59.916565
1.6235352	68.05589
1.6259766	78.65899
1.628418	91.40345
1.6308594	104.43115
1.6333008	115.34556
1.6357422	122.30393
1.6381836	124.6226
1.640625	122.81975
1.6430664	118.17742
1.6455078	112.03445
1.6479492	105.19102
1.6503906	97.79125
1.652832	89.707504
1.6552734	81.04505
1.6577148	72.36244
1.6601562	64.501945
1.6625977	58.14901
1.6650391	53.41062
1.6674805	49.757973
1.6699219	46.444706
1.6723633	43.10762
1.6748047	40.187798
1.6772461	38.862446
1.6796875	40.11652
1.6821289	43.55988
1.6845703	47.669983
1.6870117	51.128094
1.6894531	53.709698
1.6918945	56.316647
1.6943359	60.156624
1.6967773	65.53977
1.6992188	71.51946
1.7016602	76.73011
1.7041016	80.3997
1.706543	82.73369
1.7089844	84.56994
1.7114258	86.600845
1.7138672	88.797005
1.7163086	90.53868
1.71875	91.23184
1.7211914	90.77917
1.7236328	89.61902
1.7260742	88.47863
1.7285156	88.12224
1.730957	89.16995
1.7333984	91.84937
1.7358398	95.71286
1.7382812	99.69251
1.7407227	102.68679
1.7431641	104.33541
1.7456055	105.37525
1.7480469	107.11772
1.7504883	110.18112
1.7529297	113.5979
1.7553711	115.33577
1.7578125	113.71113
1.7602539	108.50745
1.7626953	101.2124
1.7651367	94.28074
1.7675781	89.64981
1.7700195	87.57751
1.7724609	87.14129
1.7749023	87.78535
1.7773438	89.96884
1.7797852	94.31497
1.7822266	100.46589
1.784668	107.06268
1.7871094	112.68467
1.7895508	116.5966
1.7919922	118.75682
1.7944336	119.30794
1.796875	118.08313
1.7993164	114.54522
1.8017578	108.15731
1.8041992	98.832115
1.8066406	87.102905
1.809082	73.90938
1.8115234	60.146233
1.8139648	46.35681
1.8164062	33.27295
1.8188477	24.600887
1.8212891	29.004902
1.8237305	44.66168
1.8261719	63.89877
1.8286133	83.15533
1.8310547	100.94955
1.8334961	116.91188
1.8359375	131.28104
1.8383789	144.30032
1.8408203	155.74863
1.8432617	164.92073
1.8457031	171.01906
1.8481445	173.59773
1.8505859	172.74072
1.8530273	168.93626
1.8554688	162.8429
1.8579102	155.19127
1.8603516	146.84596
1.862793	138.77502
1.8652344	131.66324
1.8676758	125.33925
1.8701172	118.65809
1.8725586	110.21245
1.875	99.44754
1.8774414	87.46284
1.8798828	76.98896
1.8823242	70.98767
1.8847656	70.09217
1.887207	72.01705
1.8896484	74.28481
1.8920898	76.35787
1.8945312	79.255615
1.8969727	83.71659
1.8994141	88.83065
1.9018555	92.49367
1.9042969	92.85248
1.9067383	89.3262
1.9091797	82.788734
1.9116211	75.06164
1.9140625	67.9432
1.9165039	62.272217
1.9189453	57.78587
1.9213867	53.88718
1.9238281	50.378544
1.9262695	47.466507
1.9287109	45.363262
1.9311523	44.137665
1.9335938	43.928318
1.9360352	45.105778
1.9384766	48.22024
1.940918	53.95808
1.9433594	62.996
1.9458008	75.45289
1.9482422	90.392265
1.9506836	106.01394
1.953125	120.40686
1.9555664	132.32283
1.9580078	141.5611
1.9604492	148.76239
1.9628906	154.75165
1.965332	159.9151
1.9677734	164.10362
1.9702148	166.98183
1.9726562	168.30782
1.9750977	167.87743
1.9775391	165.44386
1.9799805	161.09
1.9824219	156.00636
1.9848633	152.82533
1.9873047	154.40492
1.9897461	161.35217
1.9921875	171.03004
1.9946289	179.46246
1.9970703	183.83353
1.9995117	183.52612
2.0019531	179.57451
2.0043945	173.22504
2.006836	164.68163
2.0092773	153.01518
2.0117188	137.1802
2.0141602	117.10211
2.0166016	93.99971
2.019043	69.887474
2.0214844	46.73003
2.0239258	25.956945
2.0263672	10.378001
2.0288086	15.032004
2.03125	28.149445
2.0336914	39.65693
2.0361328	48.552525
2.0385742	54.95258
2.0410156	59.474052
2.043457	62.944603
2.0458984	66.3525
2.0483398	70.92687
2.0507812	77.77019
2.0532227	86.946846
2.055664	97.08764
2.0581055	106.16268
2.0605469	112.70892
2.0629883	116.63958
2.0654297	119.20447
2.067871	122.02471
2.0703125	125.75286
2.072754	129.52872
2.0751953	131.72836
2.0776367	131.15112
2.0800781	127.64741
2.0825195	121.95799
2.084961	115.04993
2.0874023	107.44436
2.0898438	99.01482
2.0922852	89.36081
2.0947266	78.397095
2.097168	66.69381
2.0996094	55.363667
2.1020508	45.526634
2.1044922	37.6546
2.1069336	31.46112
2.109375	26.817682
2.1118164	24.785122
2.1142578	26.561474
2.1166992	31.006113
2.1191406	35.576527
2.121582	38.486076
2.1240234	39.211357
2.1264648	38.251064
2.1289062	36.660725
2.1313477	35.577023
2.133789	36.017555
2.1362305	38.901512
2.1386719	44.77554
2.1411133	53.34457
2.1435547	63.541298
2.145996	74.03026
2.1484375	83.605446
2.150879	91.34401
2.1533203	96.648575
2.1557617	99.29324
2.1582031	99.4859
2.1606445	97.85154
2.163086	95.210785
2.1655273	92.20247
2.1679688	89.0333
2.1704102	85.621864
2.1728516	82.03201
2.175293	78.7201
2.1777344	76.25303
2.1801758	74.69622
2.1826172	73.35704
2.1850586	71.24905
2.1875	67.813515
2.1899414	63.27892
2.1923828	58.4603
2.1948242	54.14429
2.1972656	50.47801
2.199707	46.911343
2.2021484	42.79929
2.2045898	38.140446
2.2070312	33.916306
2.2094727	31.569723
2.211914	31.411448
2.2143555	31.775965
2.2167969	30.437729
2.2192383	26.141762
2.2216797	19.04842
2.224121	10.722344
2.2265625	5.9543686
2.229004	10.798192
2.2314453	18.09519
2.2338867	27.060398
2.2363281	38.676617
2.2387695	52.26291
2.241211	65.752914
2.2436523	76.89903
2.2460938	84.23257
2.2485352	87.560135
2.2509766	87.91471
2.253418	86.93655
2.2558594	85.91653
2.2583008	85.13864
2.2607422	84.069176
2.2631836	82.08567
2.265625	78.991806
2.2680664	75.0185
2.2705078	70.54789
2.2729492	65.917625
2.2753906	61.443035
2.277832	57.501575
2.2802734	54.445267
2.2827148	52.343716
2.2851562	50.855556
2.2875977	49.426624
2.290039	47.616596
2.2924805	45.23696
2.2949219	42.258354
2.2973633	38.67959
2.2998047	34.55544
2.302246	30.194307
2.3046875	26.354689
2.307129	24.174938
2.3095703	24.5962
2.3120117	27.723923
2.3144531	33.046165
2.3168945	39.849377
2.319336	47.175163
2.3217773	53.879967
2.3242188	59.077637
2.3266602	62.708782
2.3291016	65.784996
2.331543	69.81327
2.3339844	75.46865
2.3364258	81.78896
2.3388672	86.88349
2.3413086	89.32879
2.34375	89.131905
2.3461914	87.84697
2.3486328	87.66739
2.3510742	89.74988
2.3535156	93.22624
2.355957	96.04453
2.3583984	96.5548
2.3608398	94.393036
2.3632812	90.4468
2.3657227	86.208466
2.368164	82.85434
2.3706055	80.61152
2.3730469	78.88383
2.3754883	76.93507
2.3779297	74.467255
2.380371	71.768364
2.3828125	69.53262
2.385254	68.52459
2.3876953	69.19404
2.3901367	71.39839
2.3925781	74.42019
2.3950195	77.29083
2.397461	79.19791
2.3999023	79.78017
2.4023438	79.2081
2.4047852	78.02419
2.4072266	76.806564
2.409668	75.83865
2.4121094	75.019646
2.4145508	74.06337
2.4169922	72.76689
2.4194336	71.114204
2.421875	69.16742
2.4243164	66.8921
2.4267578	64.1092
2.4291992	60.63067
2.4316406	56.488564
2.434082	52.10232
2.4365234	48.283913
2.4389648	45.98318
2.4414062	45.77928
2.4438477	47.468693
2.446289	50.237923
2.4487305	53.21347
2.4511719	55.86189
2.4536133	58.08197
2.4560547	60.103832
2.458496	62.276054
2.4609375	64.81641
2.463379	67.631165
2.4658203	70.29928
2.4682617	72.22933
2.4707031	72.91571
2.4731445	72.173256
2.475586	70.25086
2.4780273	67.73122
2.4804688	65.194275
2.4829102	62.813656
2.4853516	60.20824
2.487793	56.718327
2.4902344	51.884438
2.4926758	45.804672
2.4951172	39.272564
2.4975586	33.818764
2.5	31.597273
2.5024414	34.344135
2.5048828	41.83788
2.5073242	52.469696
2.5097656	64.50586
2.512207	76.372536
2.5146484	86.74664
2.5170898	94.77831
2.5195312	100.27245
2.5219727	103.61484
2.524414	105.38717
2.5268555	105.87784
2.5292969	104.90472
2.5317383	102.14007
2.5341797	97.676
2.536621	92.309074
2.5390625	87.22862
2.541504	83.30897
2.5439453	80.767395
2.5463867	79.70737
2.5488281	80.8078
2.5512695	84.864525
2.553711	91.36903
2.5561523	98.07684
2.5585938	102.25473
2.5610352	102.24345
2.5634766	98.28773
2.565918	92.377625
2.5683594	87.00297
2.5708008	83.27628
2.5732422	80.130936
2.5756836	75.705894
2.578125	69.3582
2.5805664	62.51121
2.5830078	57.899002
2.5854492	57.307896
2.5878906	59.872868
2.590332	63.474594
2.5927734	66.84699
2.5952148	69.779564
2.5976562	72.17605
2.6000977	73.40642
2.602539	72.5382
2.6049805	69.0527
2.6074219	63.399006
2.6098633	57.06816
2.6123047	52.04993
2.614746	49.62167
2.6171875	49.303127
2.619629	49.39384
2.6220703	48.453213
2.6245117	46.145424
2.6269531	43.269558
2.6293945	41.209045
2.631836	40.833424
2.6342773	41.60697
2.6367188	42.03318
2.6391602	40.82584
2.6416016	37.60235
2.644043	32.97114
2.6464844	28.254238
2.6489258	24.854753
2.6513672	23.305607
2.6538086	22.942905
2.65625	22.877123
2.6586914	22.893253
2.6611328	23.41046
2.6635742	24.903551
2.6660156	27.387613
2.668457	30.41149
2.6708984	33.397797
2.6733398	35.9493
2.6757812	38.002968
2.6782227	39.81178
2.680664	41.696575
2.6831055	43.672054
2.6855469	45.28463
2.6879883	45.86697
2.6904297	45.009182
2.692871	42.912518
2.6953125	40.39227
2.697754	38.42151
2.7001953	37.396564
2.7026367	36.844505
2.7050781	36.009087
2.7075195	34.655212
2.709961	33.359722
2.7124023	33.107502
2.7148438	34.429832
2.7172852	36.96468
2.7197266	39.96621
2.722168	42.95645
2.7246094	45.83531
2.7270508	48.597187
2.7294922	51.05854
2.7319336	52.879463
2.734375	53.88219
2.7368164	54.453995
2.7392578	55.714413
2.7416992	59.062355
2.7441406	65.11308
2.746582	73.05823
2.7490234	81.196815
2.7514648	87.93592
2.7539062	92.491516
2.7563477	95.15456
2.758789	97.06034
2.7612305	99.433846
2.7636719	102.63251
2.7661133	105.76159
2.7685547	107.22055
2.770996	105.64667
2.7734375	100.58412
2.775879	92.67291
2.7783203	83.40081
2.7807617	74.534546
2.7832031	67.40066
2.7856445	62.40076
2.788086	59.164463
2.7905273	57.152176
2.7929688	56.023235
2.7954102	55.545345
2.7978516	55.410282
2.800293	55.26901
2.8027344	54.86721
2.8051758	54.03312
2.8076172	52.54059
2.8100586	50.11447
2.8125	46.76526
2.8149414	43.28861
2.8173828	41.368153
2.8198242	42.45536
2.8222656	46.062244
2.824707	50.086685
2.8271484	52.688087
2.8295898	53.40021
2.8320312	53.18107
2.8344727	53.540924
2.836914	55.03082
2.8393555	56.474804
2.8417969	55.868954
2.8442383	51.793118
2.8466797	44.255627
2.849121	35.052532
2.8515625	27.901344
2.854004	26.585007
2.8564453	29.63717
2.8588867	32.450844
2.8613281	32.862644
2.8637695	31.640326
2.866211	31.466969
2.8686523	34.457096
2.8710938	39.60762
2.8735352	44.1874
2.8759766	46.11415
2.878418	44.650745
2.8808594	40.30677
2.8833008	34.497047
2.8857422	28.952171
2.8881836	24.77926
2.890625	21.665688
2.8930664	18.404943
2.8955078	14.366801
2.8979492	10.684484
2.9003906	10.661358
2.902832	14.677931
2.9052734	19.535164
2.9077148	23.762451
2.9101562	27.3964
2.9125977	31.037737
2.915039	35.017036
2.9174805	38.966255
2.9199219	42.09458
2.9223633	43.77044
2.9248047	43.933395
2.927246	43.155537
2.9296875	42.33574
2.932129	42.12703
2.9345703	42.518803
2.9370117	42.98573
2.9394531	42.98987
2.9418945	42.304512
2.944336	41.00305
2.9467773	39.307777
2.9492188	37.533443
2.9516602	36.15996
2.9541016	35.777195
2.956543	36.65399
2.9589844	38.283615
2.9614258	39.596718
2.9638672	39.733227
2.9663086	38.765736
2.96875	37.974308
2.9711914	39.13493
2.9736328	42.727654
2.9760742	47.20205
2.9785156	50.35058
2.980957	50.73667
2.9833984	48.263268
2.9858398	44.195377
2.9882812	40.631565
2.9907227	39.122734
2.993164	39.25568
2.9956055	39.2302
2.9980469	37.68396
3.0004883	34.63542
3.0029297	31.39273
3.005371	29.699068
3.0078125	30.26637
3.010254	32.288925
3.0126953	34.752533
3.0151367	37.41439
3.0175781	40.539444
3.0200195	44.178894
3.022461	47.84179
3.0249023	50.745792
3.0273438	52.21226
3.0297852	51.861996
3.0322266	49.610394
3.034668	45.612377
3.0371094	40.260437
3.0395508	34.218357
3.0419922	28.35153
3.0444336	23.41083
3.046875	19.600946
3.0493164	16.75411
3.0517578	15.527449
3.0541992	17.686478
3.0566406	23.186554
3.059082	29.751328
3.0615234	35.219288
3.0639648	38.399887
3.0664062	39.326096
3.0688477	39.27413
3.071289	40.084972
3.0737305	42.627304
3.0761719	45.918453
3.0786133	48.106205
3.0810547	47.825893
3.083496	44.759186
3.0859375	39.584953
3.088379	33.624245
3.0908203	28.301552
3.0932617	24.498158
3.0957031	22.144794
3.0981445	20.566051
3.100586	19.22879
3.1030273	18.092964
3.1054688	17.533514
3.1079102	18.024984
3.1103516	19.63891
3.112793	21.82189
3.1152344	23.785477
3.1176758	25.07912
3.1201172	25.960396
3.1225586	27.32055
3.125	29.903578
3.1274414	33.395477
3.1298828	36.555805
3.1323242	38.111343
3.1347656	37.46166
3.137207	35.012596
3.1396484	32.16153
3.1420898	30.638584
3.1445312	31.02864
3.1469727	32.075695
3.149414	31.969427
3.1518555	29.736391
3.1542969	25.767895
3.1567383	22.015104
3.1591797	21.412704
3.161621	24.777044
3.1640625	29.813114
3.166504	34.449505
3.1689453	38.00812
3.1713867	40.748177
3.1738281	43.232544
3.1762695	45.7982
3.178711	48.367844
3.1811523	50.637253
3.1835938	52.349773
3.1860352	53.404003
3.1884766	53.78957
3.190918	53.50353
3.1933594	52.56356
3.1958008	51.095875
3.1982422	49.36626
3.2006836	47.651554
3.203125	46.012753
3.2055664	44.20221
3.2080078	41.84858
3.2104492	38.8097
3.2128906	35.414314
3.215332	32.388977
3.2177734	30.376177
3.2202148	29.335873
3.2226562	28.525644
3.2250977	27.15166
3.227539	24.939377
3.2299805	22.239017
3.2324219	19.740326
3.2348633	17.948519
3.2373047	16.789948
3.239746	15.833832
3.2421875	14.856117
3.244629	14.046092
3.2470703	13.710124
3.2495117	13.870819
3.2519531	14.309598
3.2543945	14.951268
3.256836	15.975858
3.2592773	17.481539
3.2617188	19.161247
3.2641602	20.42388
3.2666016	20.77603
3.269043	20.125772
3.2714844	18.922476
3.2739258	18.050392
3.2763672	18.267546
3.2788086	19.453194
3.28125	20.712156
3.2836914	21.180815
3.2861328	20.582195
3.2885742	19.455534
3.2910156	19.069885
3.293457	20.489672
3.2958984	23.30333
3.2983398	26.032671
3.3007812	27.356968
3.3032227	26.679247
3.305664	24.295097
3.3081055	21.44428
3.3105469	19.957657
3.3129883	20.759277
3.3154297	22.6944
3.317871	23.936846
3.3203125	23.403969
3.322754	20.951536
3.3251953	17.205965
3.3276367	13.380353
3.3300781	10.938439
3.3325195	10.457374
3.334961	10.824363
3.3374023	10.865268
3.3398438	10.453906
3.3422852	10.281883
3.3447266	11.062866
3.347168	12.661336
3.3496094	14.340035
3.3520508	15.496891
3.3544922	15.902999
3.3569336	15.629705
3.359375	14.902442
3.3618164	13.990523
3.3642578	13.202758
3.3666992	12.922143
3.3691406	13.440203
3.371582	14.593753
3.3740234	15.732208
3.3764648	16.109259
3.3789062	15.270204
3.3813477	13.298962
3.383789	10.985782
3.3862305	9.71809
3.3886719	10.149785
3.3911133	11.056161
3.3935547	10.991292
3.395996	9.461041
3.3984375	7.095119
3.400879	6.020237
3.4033203	7.756302
3.4057617	10.129816
3.4082031	11.370811
3.4106445	11.015027
3.413086	9.457507
3.4155273	7.7550473
3.4179688	7.0400968
3.4204102	7.1718545
3.4228516	7.0241327
3.425293	6.2009864
3.4277344	5.7391677
3.4301758	7.1443014
3.4326172	9.660474
3.4350586	11.704923
3.4375	12.396963
3.4399414	11.61221
3.4423828	10.07522
3.4448242	9.401253
3.4472656	10.747688
3.449707	13.086406
3.4521484	14.84605
3.4545898	15.174093
3.4570312	13.917386
3.4594727	11.509724
3.461914	8.965717
3.4643555	7.8044634
3.4667969	8.692484
3.4692383	10.415257
3.4716797	11.845584
3.474121	12.641132
3.4765625	12.893309
3.479004	12.840171
3.4814453	12.69321
3.4838867	12.575413
3.4863281	12.552223
3.4887695	12.675619
3.491211	12.979791
3.4936523	13.443726
3.4960938	13.967032
3.4985352	14.370782
3.5009766	14.414015
3.503418	13.83559
3.5058594	12.452086
3.5083008	10.34327
3.5107422	8.20627
3.5131836	7.697917
3.515625	9.617399
3.5180664	12.291428
3.5205078	14.076353
3.5229492	14.143007
3.5253906	12.422104
3.527832	9.916611
3.5302734	9.295378
3.5327148	12.206652
3.5351562	16.29624
3.5375977	19.35964
3.540039	20.437325
3.5424805	19.504845
3.5449219	17.407589
3.5473633	15.691547
3.5498047	15.62609
3.552246	16.74586
3.5546875	17.475782
3.557129	16.695858
3.5595703	14.184336
3.5620117	10.565694
3.5644531	7.411948
3.5668945	6.9580917
3.569336	8.540619
3.5717773	9.615957
3.5742188	9.127913
3.5766602	7.04662
3.5791016	3.915404
3.581543	1.3498238
3.5839844	3.3779714
3.5864258	5.3191743
3.5888672	5.9022007
3.5913086	5.3117046
3.59375	4.8211937
3.5961914	6.2488356
3.5986328	8.992227
3.6010742	11.522897
3.6035156	12.991391
3.605957	13.198659
3.6083984	12.657394
3.6108398	12.570889
3.6132812	13.987459
3.6157227	16.561733
3.618164	19.064812
3.6206055	20.486258
3.6230469	20.382215
3.6254883	18.894606
3.6279297	16.683311
3.630371	14.708165
3.6328125	13.664612
3.635254	13.328677
3.6376953	12.810228
3.6401367	11.424927
3.6425781	9.175108
3.6450195	7.0382943
3.647461	6.981051
3.6499023	9.116024
3.6523438	11.394464
3.6547852	12.526962
3.6572266	12.076826
3.659668	10.262673
3.6621094	8.084947
3.6645508	7.4509306
3.6669922	9.126856
3.6694336	11.368349
3.671875	12.720584
3.6743164	12.657517
3.6767578	11.277986
3.6791992	9.135331
3.6816406	7.0897865
3.684082	5.9498596
3.6865234	5.6853967
3.6889648	5.486341
3.6914062	4.838583
3.6938477	3.824463
3.696289	2.9452229
3.6987305	2.7319489
3.7011719	2.9858286
3.7036133	3.155135
3.7060547	3.0603044
3.708496	2.8137603
3.7109375	2.5909474
3.713379	2.4783788
3.7158203	2.5226362
3.7182617	2.8650422
3.7207031	3.6192966
3.7231445	4.672196
3.725586	5.767571
3.7280273	6.6431603
3.7304688	7.09239
3.7329102	7.0042233
3.7353516	6.4064527
3.737793	5.5149035
3.7402344	4.7572465
3.7426758	4.5838513
3.7451172	4.9590797
3.7475586	5.399041
3.75	5.543851
3.7524414	5.3701463
3.7548828	5.144678
3.7573242	5.2036743
3.7597656	5.577763
3.762207	5.938337
3.7646484	5.948503
3.7670898	5.5597243
3.7695312	5.231014
3.7719727	5.8747997
3.774414	7.7876835
3.7768555	10.308058
3.7792969	12.710694
3.7817383	14.511539
3.7841797	15.495571
3.786621	15.743287
3.7890625	15.607946
3.791504	15.55191
3.7939453	15.839075
3.7963867	16.328712
3.7988281	16.625793
3.8012695	16.409986
3.803711	15.647072
3.8061523	14.613887
3.8085938	13.751431
3.8110352	13.368178
3.8134766	13.393476
3.815918	13.468747
3.8183594	13.245542
3.8208008	12.558815
3.8232422	11.423823
3.8256836	9.960604
3.828125	8.324615
3.8305664	6.6838074
3.8330078	5.243225
3.8354492	4.2619753
3.8378906	3.8972824
3.840332	3.9249487
3.8427734	3.9108622
3.8452148	3.5913332
3.8476562	2.9923751
3.8500977	2.4798412
3.852539	2.5995455
3.8549805	3.2388113
3.8574219	3.7976012
3.8598633	3.9061873
3.8623047	3.4845965
3.864746	2.7502828
3.8671875	2.332528
3.869629	2.8121054
3.8720703	3.682274
3.8745117	4.318259
3.8769531	4.4885716
3.8793945	4.238596
3.881836	3.8021085
3.8842773	3.4522972
3.8867188	3.2503972
3.8891602	2.973715
3.8916016	2.3759775
3.894043	1.4527113
3.8964844	1.0464618
3.8989258	2.1600742
3.9013672	3.4494104
3.9038086	4.369636
3.90625	4.730761
3.9086914	4.5308247
3.9111328	3.9515982
3.9135742	3.3292758
3.9160156	3.0013125
3.918457	2.985157
3.9208984	2.9925902
3.9233398	2.8438914
3.9257812	2.647165
3.9282227	2.669776
3.930664	2.9595432
3.9331055	3.2393382
3.9355469	3.241723
3.9379883	2.9158309
3.9404297	2.5021462
3.942871	2.4858856
3.9453125	3.0101159
3.947754	3.642685
3.9501953	4.0050607
3.9526367	3.9652317
3.9550781	3.5956123
3.9575195	3.1141236
3.959961	2.7649198
3.9624023	2.6137774
3.9648438	2.4954774
3.9672852	2.2436352
3.9697266	1.868226
3.972168	1.5776956
3.9746094	1.6042576
3.9770508	1.8419467
3.9794922	2.022091
3.9819336	2.031086
3.984375	1.9257339
3.9868164	1.8590386
3.9892578	1.9300227
3.9916992	2.0671031
3.9941406	2.1262248
3.996582	2.0236506
3.9990234	1.7662878
4.001465	1.4291239
4.0039062	1.1125265
4.0063477	0.88811624
4.008789	0.77683103
4.0112305	0.81635404
4.013672	1.0556884
4.0161133	1.4294838
4.0185547	1.8055981
4.020996	2.0670767
4.0234375	2.1422777
4.025879	2.0227854
4.0283203	1.77681
4.0307617	1.5523485
4.033203	1.5159091
4.0356445	1.6817198
4.038086	1.9083183
4.0405273	2.0808063
4.0429688	2.1716974
4.04541	2.214909
4.0478516	2.2605941
4.050293	2.3306568
4.0527344	2.4030924
4.055176	2.4343042
4.057617	2.3908503
4.0600586	2.2666192
4.0625	2.0841768
4.0649414	1.884865
4.067383	1.7095531
4.069824	1.575273
4.0722656	1.4666286
4.074707	1.356246
4.0771484	1.2379074
4.07959	1.143849
4.0820312	1.1243851
4.0844727	1.1884358
4.086914	1.2804565
4.0893555	1.3298347
4.091797	1.2946427
4.0942383	1.1724428
4.0966797	0.99612045
4.099121	0.8224314
4.1015625	0.70699036
4.104004	0.66132444
4.1064453	0.64315206
4.1088867	0.607732
4.111328	0.54087955
4.1137695	0.45333496
4.116211	0.36662757
4.1186523	0.30315533
4.1210938	0.28071952
4.123535	0.3018229
4.1259766	0.34768257
4.128418	0.39169762
4.1308594	0.41152576
4.133301	0.39329392
4.135742	0.33375886
4.1381836	0.24263825
4.140625	0.15367536
4.1430664	0.15285099
4.145508	0.23637562
4.147949	0.31601825
4.1503906	0.3581108
4.152832	0.35405385
4.1552734	0.3104779
4.157715	0.24863292
4.1601562	0.20308243
4.1625977	0.2015188
4.165039	0.23030958
4.1674805	0.265919
4.169922	0.30647522
4.1723633	0.35689256
4.1748047	0.41006562
4.177246	0.44779658
4.1796875	0.45373958
4.182129	0.42406017
4.1845703	0.372576
4.1870117	0.32881978
4.189453	0.31915897
4.1918945	0.33738092
4.194336	0.35729852
4.1967773	0.3679408
4.1992188	0.38119465
4.20166	0.41398242
4.2041016	0.46346852
4.206543	0.5065995
4.2089844	0.5192812
4.211426	0.48879614
4.213867	0.41685462
4.2163086	0.31760547
4.21875	0.21405819
4.2211914	0.13613735
4.223633	0.1113911
4.226074	0.12030292
4.2285156	0.1260168
4.230957	0.12223913
4.2333984	0.11582038
4.23584	0.1100873
4.2382812	0.10165261
4.2407227	0.089207664
4.243164	0.08234354
4.2456055	0.09439477
4.248047	0.11905366
4.2504883	0.13957052
4.2529297	0.14516097
4.255371	0.13246562
4.2578125	0.10453049
4.260254	0.06976499
4.2626953	0.04292576
4.2651367	0.04180447
4.267578	0.054000396
4.2700195	0.06573729
4.272461	0.082383156
4.2749023	0.10967963
4.2773438	0.14292975
4.279785	0.17185989
4.2822266	0.18701024
4.284668	0.1825609
4.2871094	0.15787756
4.289551	0.11906214
4.291992	0.08308156
4.2944336	0.08066528
4.296875	0.10860496
4.2993164	0.13469623
4.301758	0.1450351
4.304199	0.13845608
4.3066406	0.12147307
4.309082	0.10537445
4.3115234	0.098955646
4.313965	0.0990567
4.3164062	0.095309384
4.3188477	0.081563845
4.321289	0.05873637
4.3237305	0.034023415
4.326172	0.023366803
4.3286133	0.030783104
4.3310547	0.034592647
4.333496	0.029313816
4.3359375	0.021755425
4.338379	0.0269542
4.3408203	0.040149238
4.3432617	0.050125156
4.345703	0.055089697
4.3481445	0.059829533
4.350586	0.07044261
4.3530273	0.086192556
4.3554688	0.10061608
4.35791	0.10759567
4.3603516	0.10414302
4.362793	0.09099369
4.3652344	0.07235855
4.367676	0.055548284
4.370117	0.048287317
4.3725586	0.050112475
4.375	0.05274053
4.3774414	0.051119644
4.379883	0.04507753
4.382324	0.0373482
4.3847656	0.03136801
4.387207	0.028838946
4.3896484	0.028316708
4.39209	0.027815394
4.3945312	0.02682525
4.3969727	0.02576425
4.399414	0.024582135
4.4018555	0.022657804
4.404297	0.01943977
4.4067383	0.015134961
4.4091797	0.010719068
4.411621	0.0077176853
4.4140625	0.0066794767
4.416504	0.006122263
4.4189453	0.0047103614
4.4213867	0.0028181782
4.423828	0.00334404
4.4262695	0.006142273
4.428711	0.008893187
4.4311523	0.010947522
4.4335938	0.012027359
4.436035	0.01199304
4.4384766	0.010726144
4.440918	0.008264917
4.4433594	0.004995721
4.445801	0.0026060434
4.448242	0.0048979665
4.4506836	0.008160987
4.453125	0.010495724
4.4555664	0.01139081
4.458008	0.010752804
4.460449	0.0088579925
4.4628906	0.006235571
4.465332	0.004149479
4.4677734	0.0043863966
4.470215	0.0059768483
4.4726562	0.007150809
4.4750977	0.0072878655
4.477539	0.006377392
4.4799805	0.0046946574
4.482422	0.0028735506
4.4848633	0.0021505428
4.4873047	0.002940907
4.489746	0.0036714573
4.4921875	0.003697332
4.494629	0.0030326406
4.4970703	0.0018532079
4.4995117	5.5479666E-4
4.501953	9.153093E-4
4.5043945	0.0016950341
4.506836	0.001920356
4.5092773	0.001635788
4.5117188	0.001006018
4.51416	4.5471863E-4
4.5166016	7.629128E-4
4.519043	0.0011373211
4.5214844	0.0012460519
4.523926	0.0010936619
4.526367	8.336056E-4
4.5288086	6.9076585E-4
4.53125	7.14867E-4
4.5336914	7.333394E-4
4.536133	6.4087595E-4
4.538574	5.189614E-4
4.5410156	5.1777944E-4
4.543457	6.661509E-4
4.5458984	8.116339E-4
4.54834	8.8027865E-4
4.5507812	8.4970787E-4
4.5532227	7.3564536E-4
4.555664	5.941286E-4
4.5581055	4.4705844E-4
4.560547	3.3930998E-4
4.5629883	3.1173177E-4
4.5654297	3.511363E-4
4.567871	3.8622864E-4
4.5703125	3.9899946E-4
4.572754	3.858446E-4
4.5751953	4.2406807E-4
4.5776367	5.212602E-4
4.580078	6.10772E-4
4.5825195	6.5743295E-4
4.584961	6.416543E-4
4.5874023	5.4062647E-4
4.5898438	4.4004348E-4
4.592285	3.5164403E-4
4.5947266	3.0935853E-4
4.597168	2.5527595E-4
4.5996094	1.8623538E-4
4.602051	1.160872E-4
4.604492	6.499107E-5
4.6069336	7.027331E-5
4.609375	9.697212E-5
4.6118164	1.5503261E-4
4.614258	2.3070059E-4
4.616699	2.908571E-4
4.6191406	3.0320915E-4
4.621582	2.750394E-4
4.6240234	2.046186E-4
4.626465	1.3775231E-4
4.6289062	1.2884985E-4
4.6313477	1.6185542E-4
4.633789	1.7477143E-4
4.6362305	1.541553E-4
4.638672	1.6228051E-4
4.6411133	1.652931E-4
4.6435547	1.5780587E-4
4.645996	1.2761402E-4
4.6484375	1.0440011E-4
4.650879	1.5358505E-4
4.6533203	1.9708663E-4
4.6557617	2.3199194E-4
4.658203	2.3365402E-4
4.6606445	2.1093931E-4
4.663086	1.9700464E-4
4.6655273	2.0096776E-4
4.6679688	2.2718516E-4
4.67041	2.3640676E-4
4.6728516	2.3572499E-4
4.675293	2.2396985E-4
4.6777344	2.0845426E-4
4.680176	1.9907937E-4
4.682617	1.778815E-4
4.6850586	1.57358E-4
4.6875	1.2907438E-4
4.6899414	1.1054463E-4
4.692383	1.3276462E-4
4.694824	1.4567375E-4
4.6972656	1.6810311E-4
4.699707	1.7535662E-4
4.7021484	1.8547433E-4
4.70459	1.8095985E-4
4.7070312	1.6273696E-4
4.7094727	1.4184501E-4
4.711914	1.0940669E-4
4.7143555	8.206477E-5
4.716797	6.141544E-5
4.7192383	7.9413534E-5
4.7216797	1.0967769E-4
4.724121	1.4822664E-4
4.7265625	1.7062917E-4
4.729004	1.8168215E-4
4.7314453	1.712829E-4
4.7338867	1.4363899E-4
4.736328	1.0673828E-4
4.7387695	5.6432382E-5
4.741211	6.9087105E-6
4.7436523	4.385409E-5
4.7460938	7.497797E-5
4.748535	9.9989105E-5
4.7509766	1.0918868E-4
4.753418	1.0070801E-4
4.7558594	7.995955E-5
4.758301	6.875139E-5
4.760742	6.2498206E-5
4.7631836	7.508319E-5
4.765625	7.978465E-5
4.7680664	8.8542074E-5
4.770508	1.0114669E-4
4.772949	1.0582743E-4
4.7753906	8.377105E-5
4.777832	7.126238E-5
4.7802734	5.6168094E-5
4.782715	5.585699E-5
4.7851562	6.7607376E-5
4.7875977	7.711965E-5
4.790039	9.031734E-5
4.7924805	9.8842625E-5
4.794922	8.42366E-5
4.7973633	8.143117E-5
4.7998047	8.507427E-5
4.802246	6.550847E-5
4.8046875	5.4868025E-5
4.807129	6.7607376E-5
4.8095703	5.5026925E-5
4.8120117	4.27063E-5
4.814453	4.4070075E-5
4.8168945	3.078818E-5
4.819336	4.5652225E-5
4.8217773	4.8300757E-5
4.8242188	5.5272318E-5
4.82666	5.74568E-5
4.8291016	4.8278343E-5
4.831543	3.4678094E-5
4.8339844	3.464871E-5
4.836426	2.0018984E-5
4.838867	2.99314E-5
4.8413086	3.182587E-5
4.84375	3.3781078E-5
4.8461914	4.23036E-5
4.848633	4.043219E-5
4.851074	5.170375E-5
4.8535156	4.16676E-5
4.855957	4.6898287E-5
4.8583984	3.550974E-5
4.86084	2.352968E-5
4.8632812	2.275118E-5
4.8657227	2.872001E-5
4.868164	2.9170043E-5
4.8706055	2.9662586E-5
4.873047	3.590329E-5
4.8754883	2.7677945E-5
4.8779297	3.696549E-5
4.880371	3.394545E-5
4.8828125	4.2666026E-5
4.885254	4.377874E-5
4.8876953	3.9913408E-5
4.8901367	3.3432578E-5
4.892578	3.3271073E-5
4.8950195	2.771142E-5
4.897461	1.9705783E-5
4.8999023	2.3433333E-5
4.9023438	2.3188608E-5
4.904785	2.0978912E-5
4.9072266	1.6016655E-5
4.909668	2.2390437E-5
4.9121094	8.1504295E-6
4.914551	1.3046181E-5
4.916992	1.5253574E-5
4.9194336	3.3387114E-5
4.921875	1.8172737E-5
4.9243164	1.4509373E-5
4.926758	2.0651012E-5
4.929199	5.4164034E-6
4.9316406	1.1502729E-5
4.934082	1.3956633E-5
4.9365234	8.347919E-6
4.938965	1.0358581E-5
4.9414062	4.98034E-6
4.9438477	5.4075313E-6
4.946289	5.0468207E-6
4.9487305	3.3187318E-6
4.951172	8.946513E-6
4.9536133	4.3787313E-6
4.9560547	7.8766225E-6
4.958496	1.4760873E-5
4.9609375	6.839046E-6
4.963379	5.7258585E-6
4.9658203	8.348328E-6
4.9682617	5.020735E-6
4.970703	1.3329965E-5
4.9731445	1.1466769E-5
4.975586	2.0267795E-5
4.9780273	1.617861E-5
4.9804688	1.0122393E-5
4.98291	1.6455762E-5
4.9853516	1.1582801E-5
4.987793	1.8301878E-5
4.9902344	8.22969E-6
4.992676	1.962741E-5
4.995117	8.319806E-6
4.9975586	2.7522176E-5



DATASET #4

Name: Smoothed EAS, b=188.500000 (cm/s)
Num Points: 2044
Info: 

X, Y Data:
0.009765625	1.2164457
0.012207031	2.7215776
0.014648438	2.941048
0.017089844	3.2041614
0.01953125	3.4776363
0.021972656	3.5989006
0.024414062	3.7214398
0.026855469	3.7510674
0.029296875	3.8141215
0.03173828	3.8205247
0.034179688	3.9359071
0.036621094	3.9424229
0.0390625	4.026545
0.041503906	4.139622
0.043945312	4.145052
0.04638672	4.1450424
0.048828125	4.0325603
0.05126953	3.829641
0.053710938	3.6182663
0.056152344	3.4757676
0.05859375	3.4342737
0.061035156	4.0858183
0.06347656	4.632261
0.06591797	5.3423033
0.068359375	6.1730843
0.07080078	7.0864086
0.07324219	8.069443
0.075683594	9.112698
0.078125	10.187075
0.080566406	11.640136
0.08300781	11.348494
0.08544922	12.365658
0.087890625	13.337492
0.09033203	14.261788
0.09277344	15.133726
0.095214844	15.941839
0.09765625	16.668484
0.10009766	17.291197
0.10253906	17.784903
0.10498047	18.121078
0.10742188	18.264063
0.10986328	18.193382
0.11230469	17.936626
0.11474609	17.544031
0.1171875	17.053759
0.11962891	16.496664
0.12207031	15.91622
0.12451172	15.382578
0.12695312	14.995241
0.12939453	14.876005
0.13183594	15.156779
0.13427734	15.962738
0.13671875	17.379196
0.13916016	19.40108
0.14160156	21.901842
0.14404297	24.664677
0.14648438	27.462482
0.14892578	30.124807
0.15136719	32.551414
0.1538086	34.68918
0.15625	36.50866
0.1586914	38.070553
0.16113281	39.183384
0.16357422	38.670555
0.16601562	39.71612
0.16845703	40.407997
0.17089844	40.86549
0.17333984	41.25865
0.17578125	41.7517
0.17822266	42.43197
0.18066406	43.274166
0.18310547	44.167442
0.18554688	44.980747
0.18798828	45.617092
0.19042969	46.030167
0.1928711	46.214127
0.1953125	46.19587
0.1977539	46.046642
0.20019531	45.900127
0.20263672	45.946156
0.20507812	46.378986
0.20751953	47.318153
0.20996094	48.75456
0.21240234	50.56241
0.21484375	52.56289
0.21728516	54.588337
0.21972656	56.51125
0.22216797	58.24112
0.22460938	59.71456
0.22705078	60.899124
0.22949219	61.80914
0.2319336	62.51475
0.234375	63.124836
0.2368164	63.743576
0.23925781	64.42179
0.24169922	65.14116
0.24414062	65.36735
0.24658203	66.037094
0.24902344	66.61475
0.25146484	67.08492
0.25390625	67.45436
0.25634766	67.72575
0.25878906	67.88899
0.26123047	67.944954
0.26367188	67.94289
0.26611328	67.990875
0.2685547	68.2134
0.2709961	68.67385
0.2734375	69.317215
0.2758789	69.98158
0.2783203	70.474236
0.28076172	70.6574
0.28320312	70.48792
0.28564453	69.99758
0.28808594	69.24649
0.29052734	68.29578
0.29296875	67.219574
0.29541016	66.13223
0.29785156	65.18394
0.30029297	64.50052
0.30273438	64.09674
0.30517578	63.82918
0.3076172	63.4345
0.3100586	62.63431
0.3125	61.239414
0.3149414	59.181206
0.3173828	56.556374
0.31982422	53.48042
0.32226562	50.107883
0.32470703	48.224907
0.32714844	44.809544
0.32958984	41.640377
0.33203125	38.98568
0.33447266	37.080147
0.33691406	36.05979
0.33935547	35.941986
0.34179688	36.67339
0.34423828	38.20905
0.3466797	40.556118
0.3491211	43.749935
0.3515625	47.789196
0.3540039	52.580936
0.3564453	57.928246
0.35888672	63.560448
0.36132812	69.184006
0.36376953	74.526886
0.36621094	79.35362
0.36865234	83.444954
0.37109375	86.55956
0.37353516	88.41632
0.37597656	88.73405
0.37841797	87.33498
0.38085938	84.276344
0.38330078	79.946915
0.3857422	75.06972
0.3881836	70.58515
0.390625	67.43505
0.3930664	66.31451
0.3955078	67.492
0.39794922	70.69416
0.40039062	75.27151
0.40283203	80.31368
0.40527344	84.86468
0.40771484	86.796265
0.41015625	88.71984
0.41259766	88.70324
0.41503906	86.74586
0.41748047	83.113396
0.41992188	78.257935
0.42236328	72.73145
0.4248047	67.09976
0.4272461	61.848904
0.4296875	57.283993
0.4321289	53.450336
0.4345703	50.124393
0.43701172	46.904312
0.43945312	43.37944
0.44189453	39.309597
0.44433594	34.74402
0.44677734	30.052069
0.44921875	25.865381
0.45166016	22.92495
0.45410156	21.84427
0.45654297	22.86613
0.45898438	25.732363
0.46142578	29.742714
0.4638672	34.019535
0.4663086	37.881824
0.46875	41.00062
0.4711914	43.31642
0.4736328	44.928925
0.47607422	46.015312
0.47851562	46.763927
0.48095703	47.315918
0.48339844	47.722046
0.48583984	47.92398
0.48828125	47.731457
0.49072266	47.151222
0.49316406	46.00723
0.49560547	44.332157
0.49804688	42.31858
0.5004883	40.309372
0.5029297	38.742672
0.5053711	38.06448
0.5078125	38.62823
0.5102539	40.606564
0.5126953	43.94287
0.5151367	48.3632
0.5175781	53.44977
0.52001953	58.75439
0.52246094	63.910957
0.52490234	68.70151
0.52734375	73.05179
0.52978516	76.97431
0.53222656	80.50218
0.53466797	83.649925
0.5371094	86.412346
0.5395508	88.78614
0.5419922	90.78625
0.5444336	92.43553
0.546875	93.72893
0.5493164	94.59396
0.5517578	94.86207
0.5541992	94.33038
0.5566406	92.7308
0.55908203	89.82228
0.56152344	85.42711
0.56396484	79.489334
0.56640625	72.16348
0.56884766	65.13658
0.57128906	57.033043
0.57373047	49.898865
0.5761719	44.896008
0.5786133	42.943687
0.5810547	44.436962
0.5834961	49.129566
0.5859375	56.237186
0.5883789	64.7036
0.5908203	73.49745
0.5932617	81.87184
0.5957031	89.58031
0.59814453	96.81243
0.60058594	103.97327
0.60302734	111.50778
0.60546875	119.76569
0.60791016	128.90007
0.61035156	138.81029
0.61279297	149.13628
0.6152344	159.3005
0.6176758	168.5878
0.6201172	176.24977
0.6225586	181.61916
0.625	184.2141
0.6274414	183.81192
0.6298828	180.47644
0.6323242	174.57674
0.6347656	166.70026
0.63720703	157.59258
0.63964844	148.03174
0.64208984	138.69057
0.64453125	130.00723
0.64697266	122.09967
0.64941406	115.92267
0.65185547	108.57221
0.6542969	100.86356
0.6567383	92.50947
0.6591797	83.61373
0.6616211	74.78121
0.6640625	67.050385
0.6665039	61.64524
0.6689453	59.61705
0.6713867	61.498096
0.6738281	67.09294
0.67626953	75.48317
0.67871094	85.23569
0.68115234	94.72476
0.68359375	102.43338
0.68603516	107.18596
0.68847656	108.45224
0.69091797	106.31153
0.6933594	101.20939
0.6958008	93.81055
0.6982422	84.89318
0.7006836	75.26098
0.703125	65.67463
0.7055664	56.80632
0.7080078	49.21199
0.7104492	43.31283
0.7128906	39.37632
0.71533203	37.494186
0.71777344	37.560814
0.72021484	39.267326
0.72265625	42.127655
0.72509766	45.54647
0.72753906	48.924088
0.72998047	51.77693
0.7324219	53.41136
0.7348633	54.78689
0.7373047	55.854343
0.7397461	57.208027
0.7421875	59.54638
0.7446289	63.50372
0.7470703	69.4945
0.7495117	77.60936
0.7519531	87.584625
0.75439453	98.84705
0.75683594	110.61433
0.75927734	122.02262
0.76171875	132.25398
0.76416016	140.6532
0.76660156	146.81487
0.76904297	150.60162
0.7714844	152.11029
0.7739258	151.6213
0.7763672	149.53879
0.7788086	146.32297
0.78125	142.42088
0.7836914	138.20648
0.7861328	133.9404
0.7885742	129.75652
0.7910156	125.67895
0.79345703	121.65615
0.79589844	117.61118
0.79833984	113.48758
0.80078125	109.28297
0.80322266	105.06342
0.80566406	100.95702
0.80810547	97.13106
0.8105469	93.76023
0.8129883	91.363014
0.8154297	89.28518
0.8178711	87.91145
0.8203125	87.20257
0.8227539	87.063965
0.8251953	87.36326
0.8276367	87.95598
0.8300781	88.71707
0.83251953	89.572365
0.83496094	90.52118
0.83740234	91.643936
0.83984375	93.09294
0.84228516	95.068054
0.84472656	97.78021
0.84716797	101.40724
0.8496094	106.04751
0.8520508	111.68062
0.8544922	118.14524
0.8569336	125.14159
0.859375	132.26106
0.8618164	139.03795
0.8642578	145.01369
0.8666992	149.80037
0.8691406	153.13185
0.87158203	154.89294
0.87402344	155.12454
0.87646484	154.00096
0.87890625	151.78188
0.88134766	148.74843
0.88378906	145.13934
0.88623047	141.10289
0.8886719	136.6767
0.8911133	131.79935
0.8935547	126.70996
0.8959961	120.58866
0.8984375	113.71769
0.9008789	106.18427
0.9033203	98.23055
0.9057617	90.243706
0.9082031	82.70822
0.91064453	76.127266
0.91308594	70.93037
0.91552734	67.389114
0.91796875	65.562485
0.92041016	65.28443
0.92285156	66.195496
0.92529297	67.810646
0.9277344	69.608025
0.9301758	71.11952
0.9326172	72.00358
0.9350586	72.08434
0.9375	71.350784
0.9399414	69.93295
0.9423828	68.074585
0.9448242	66.06973
0.9472656	64.18447
0.94970703	62.608196
0.95214844	61.438858
0.95458984	60.69465
0.95703125	60.342495
0.95947266	60.330994
0.96191406	60.616013
0.96435547	61.171696
0.9667969	61.98662
0.9692383	63.052593
0.9716797	64.35749
0.9741211	65.81613
0.9765625	67.516335
0.9790039	69.2791
0.9814453	70.95718
0.9838867	72.37828
0.9863281	73.370804
0.98876953	73.79252
0.99121094	73.555115
0.99365234	72.64058
0.99609375	71.10866
0.99853516	69.09639
1.0009766	66.809456
1.003418	64.50381
1.0058594	62.45836
1.0083008	60.943985
1.0107422	60.192593
1.0131836	60.369095
1.015625	61.54856
1.0180664	63.701347
1.0205078	66.68916
1.0229492	70.273735
1.0253906	74.13752
1.027832	77.91376
1.0302734	81.22255
1.0327148	83.709946
1.0351562	85.087074
1.0375977	85.16459
1.0400391	83.877625
1.0424805	81.29727
1.0449219	77.627174
1.0473633	73.183426
1.0498047	68.35855
1.0522461	63.575394
1.0546875	59.239944
1.0571289	55.922527
1.0595703	53.486282
1.0620117	52.253716
1.0644531	52.27816
1.0668945	53.51847
1.0693359	55.85678
1.0717773	59.120975
1.0742188	63.10856
1.0766602	67.60749
1.0791016	72.4136
1.081543	77.33887
1.0839844	82.21249
1.0864258	86.87675
1.0888672	91.18881
1.0913086	95.029144
1.09375	98.29824
1.0961914	100.91168
1.0986328	102.80475
1.1010742	103.94367
1.1035156	104.33846
1.105957	104.05286
1.1083984	103.20725
1.1108398	101.97166
1.1132812	100.5485
1.1157227	99.14726
1.1181641	97.95667
1.1206055	97.11939
1.1230469	96.71571
1.1254883	96.757034
1.1279297	97.18911
1.1303711	97.90536
1.1328125	98.77098
1.1352539	99.65575
1.1376953	100.50407
1.1401367	101.19778
1.1425781	101.85066
1.1450195	102.59833
1.1474609	103.63149
1.1499023	105.16014
1.1523438	107.37161
1.1547852	110.38909
1.1572266	114.23785
1.159668	118.82193
1.1621094	123.91948
1.1645508	129.19963
1.1669922	134.25812
1.1694336	138.66522
1.171875	142.01894
1.1743164	143.99664
1.1767578	144.39903
1.1791992	143.18008
1.1816406	140.45792
1.184082	136.5031
1.1865234	131.7067
1.1889648	126.5394
1.1914062	121.50801
1.1938477	117.1045
1.1962891	113.75304
1.1987305	111.76515
1.2011719	111.31368
1.2036133	112.42491
1.2060547	114.98806
1.2084961	118.77728
1.2109375	123.48057
1.2133789	128.73083
1.2158203	134.13673
1.2182617	139.25404
1.2207031	143.75494
1.2231445	147.37456
1.2255859	149.88245
1.2280273	151.11702
1.2304688	150.9861
1.2329102	149.46637
1.2353516	146.6009
1.237793	142.49213
1.2402344	137.29272
1.2426758	131.1988
1.2451172	124.44477
1.2475586	117.29903
1.25	110.05798
1.2524414	103.03633
1.2548828	96.55263
1.2573242	90.9108
1.2597656	86.37948
1.262207	83.1715
1.2646484	81.42572
1.2670898	81.19343
1.2695312	82.432
1.2719727	85.00812
1.2744141	88.710754
1.2768555	93.27423
1.2792969	98.404854
1.2817383	103.80802
1.2841797	109.21205
1.2866211	114.38767
1.2890625	119.1619
1.2915039	123.42421
1.2939453	127.12318
1.2963867	130.25241
1.2988281	132.5445
1.3012695	134.59921
1.3037109	136.19212
1.3061523	137.34715
1.3085938	138.06499
1.3110352	138.31213
1.3134766	138.02448
1.315918	137.12021
1.3183594	135.5176
1.3208008	133.1537
1.3232422	130.00114
1.3256836	126.0807
1.328125	121.46829
1.3305664	116.29568
1.3330078	110.74481
1.3354492	105.03579
1.3378906	99.40968
1.340332	94.107574
1.3427734	89.34884
1.3452148	85.31188
1.3476562	82.11975
1.3500977	79.83165
1.3525391	78.44123
1.3549805	77.88036
1.3574219	78.02972
1.3598633	78.733696
1.3623047	79.81865
1.3647461	81.11185
1.3671875	82.45911
1.3696289	83.7389
1.3720703	84.872055
1.3745117	85.82647
1.3769531	86.61703
1.3793945	87.30107
1.3818359	87.86454
1.3842773	88.65305
1.3867188	89.72732
1.3891602	91.255165
1.3916016	93.407036
1.394043	96.34209
1.3964844	100.19813
1.3989258	105.08439
1.4013672	111.07565
1.4038086	118.20743
1.40625	126.47175
1.4086914	135.8139
1.4111328	146.13045
1.4135742	157.26881
1.4160156	169.02878
1.418457	181.1655
1.4208984	193.39471
1.4233398	205.40015
1.4257812	216.84369
1.4282227	227.3792
1.4306641	236.6663
1.4331055	244.38948
1.4355469	250.27283
1.4379883	254.09631
1.4404297	255.71037
1.4428711	255.04825
1.4453125	252.13458
1.4477539	247.08913
1.4501953	240.12457
1.4526367	231.53793
1.4550781	221.69574
1.4575195	211.01418
1.4599609	199.93568
1.4624023	188.97754
1.4648438	178.47966
1.4672852	168.81879
1.4697266	160.29024
1.472168	153.1008
1.4746094	147.3569
1.4770508	143.0603
1.4794922	140.11183
1.4819336	138.3232
1.484375	137.43562
1.4868164	137.14355
1.4892578	137.12067
1.4916992	137.04597
1.4941406	136.62794
1.496582	135.62521
1.4990234	133.86308
1.5014648	131.24454
1.5039062	127.75551
1.5063477	123.46369
1.5087891	118.51156
1.5112305	113.10151
1.5136719	107.47796
1.5161133	101.90796
1.5185547	96.66516
1.5209961	92.013756
1.5234375	88.189445
1.5258789	85.38193
1.5283203	83.72263
1.5307617	83.27821
1.5332031	84.04873
1.5356445	85.96953
1.5380859	88.91629
1.5405273	92.713066
1.5429688	97.264915
1.5454102	102.05965
1.5478516	106.98275
1.550293	111.77841
1.5527344	116.20362
1.5551758	120.03873
1.5576172	123.09566
1.5600586	125.22439
1.5625	126.31783
1.5649414	126.31593
1.5673828	125.20896
1.5698242	123.03661
1.5722656	119.88108
1.574707	115.8601
1.5771484	111.12203
1.5795898	105.8391
1.5820312	100.19796
1.5844727	94.38997
1.5869141	88.60478
1.5893555	83.02418
1.5917969	77.81881
1.5942383	73.14255
1.5966797	69.12619
1.5991211	65.87213
1.6015625	63.45106
1.6040039	61.90105
1.6064453	61.227882
1.6088867	61.405666
1.6113281	62.377316
1.6137695	64.055664
1.6162109	66.326256
1.6186523	69.05238
1.6210938	72.08228
1.6235352	75.296265
1.6259766	78.43216
1.628418	81.39607
1.6308594	84.04462
1.6333008	86.251816
1.6357422	87.914444
1.6381836	88.95708
1.640625	89.33597
1.6430664	89.04077
1.6455078	88.09356
1.6479492	86.54587
1.6503906	84.47446
1.652832	81.9761
1.6552734	79.16215
1.6577148	76.15379
1.6601562	73.07702
1.6625977	70.05597
1.6650391	67.2062
1.6674805	64.62821
1.6699219	62.404877
1.6723633	60.600822
1.6748047	59.262474
1.6772461	58.41756
1.6796875	58.074444
1.6821289	58.222256
1.6845703	58.832306
1.6870117	59.860996
1.6894531	61.25389
1.6918945	62.950356
1.6943359	64.88775
1.6967773	67.00449
1.6992188	69.24221
1.7016602	71.54681
1.7041016	73.87049
1.706543	76.148094
1.7089844	78.38748
1.7114258	80.55283
1.7138672	82.6289
1.7163086	84.607
1.71875	86.48298
1.7211914	88.25497
1.7236328	89.92153
1.7260742	91.48102
1.7285156	92.932
1.730957	94.2734
1.7333984	95.50359
1.7358398	96.619385
1.7382812	97.616035
1.7407227	98.488434
1.7431641	99.23342
1.7456055	99.852005
1.7480469	100.34977
1.7504883	100.73604
1.7529297	101.02244
1.7553711	101.22182
1.7578125	101.34749
1.7602539	101.41249
1.7626953	101.42827
1.7651367	101.40249
1.7675781	101.33685
1.7700195	101.22581
1.7724609	101.05647
1.7749023	100.80966
1.7773438	100.46213
1.7797852	99.989624
1.7822266	99.37071
1.784668	98.59077
1.7871094	97.65116
1.7895508	96.55021
1.7919922	95.31038
1.7944336	93.96802
1.796875	92.57487
1.7993164	91.19761
1.8017578	89.91638
1.8041992	88.82103
1.8066406	88.004974
1.809082	87.55789
1.8115234	87.55846
1.8139648	88.06821
1.8164062	89.12742
1.8188477	90.75247
1.8212891	92.933334
1.8237305	95.63181
1.8261719	98.78076
1.8286133	102.28673
1.8310547	106.03518
1.8334961	109.8968
1.8359375	113.73376
1.8383789	117.40597
1.8408203	120.77778
1.8432617	123.72512
1.8457031	126.14208
1.8481445	127.94627
1.8505859	129.08205
1.8530273	129.52174
1.8554688	129.26523
1.8579102	128.33823
1.8603516	126.7897
1.862793	124.68831
1.8652344	122.11718
1.8676758	119.063
1.8701172	115.82274
1.8725586	112.39015
1.875	108.85201
1.8774414	105.29172
1.8798828	101.78111
1.8823242	98.377045
1.8847656	95.12058
1.887207	92.0379
1.8896484	89.142654
1.8920898	86.43872
1.8945312	83.924164
1.8969727	81.59394
1.8994141	79.443184
1.9018555	77.469124
1.9042969	75.67381
1.9067383	74.0658
1.9091797	72.6613
1.9116211	71.48427
1.9140625	70.565735
1.9165039	69.94254
1.9189453	69.65586
1.9213867	69.749016
1.9238281	70.264244
1.9262695	71.23857
1.9287109	72.699554
1.9311523	74.66192
1.9335938	77.126465
1.9360352	80.08117
1.9384766	83.50361
1.940918	87.35975
1.9433594	91.60223
1.9458008	96.170494
1.9482422	100.97693
1.9506836	105.97808
1.953125	111.076
1.9555664	116.18771
1.9580078	121.23054
1.9604492	126.1231
1.9628906	130.78606
1.965332	135.14328
1.9677734	139.12325
1.9702148	142.66052
1.9726562	145.69772
1.9750977	148.18472
1.9775391	150.07887
1.9799805	151.34549
1.9824219	151.9582
1.9848633	151.89983
1.9873047	151.16322
1.9897461	149.75208
1.9921875	147.68176
1.9946289	144.98013
1.9970703	141.68816
1.9995117	137.86064
2.0019531	133.56659
2.0043945	128.88885
2.006836	123.92226
2.0092773	118.77087
2.0117188	113.54438
2.0141602	108.35558
2.0166016	103.31599
2.019043	98.53381
2.0214844	94.11055
2.0239258	90.137436
2.0263672	86.6919
2.0288086	83.834595
2.03125	81.68141
2.0336914	80.10295
2.0361328	79.17203
2.0385742	78.86595
2.0410156	79.1405
2.043457	79.93206
2.0458984	81.16171
2.0483398	82.73978
2.0507812	84.56978
2.0532227	86.549904
2.055664	88.57553
2.0581055	90.54273
2.0605469	92.35203
2.0629883	93.9129
2.0654297	95.14732
2.067871	95.99186
2.0703125	96.39847
2.072754	96.33475
2.0751953	95.78422
2.0776367	94.74657
2.0800781	93.237595
2.0825195	91.287056
2.084961	88.92872
2.0874023	86.22082
2.0898438	83.23795
2.0922852	80.059875
2.0947266	76.76802
2.097168	73.443924
2.0996094	70.167145
2.1020508	67.0134
2.1044922	64.05257
2.1069336	61.347137
2.109375	58.95154
2.1118164	56.943954
2.1142578	55.305237
2.1166992	54.081474
2.1191406	53.28472
2.121582	52.914513
2.1240234	52.95777
2.1264648	53.38975
2.1289062	54.17605
2.1313477	55.27464
2.133789	56.637367
2.1362305	58.21127
2.1386719	59.93935
2.1411133	61.761963
2.1435547	63.618652
2.145996	65.450226
2.1484375	67.20067
2.150879	68.81848
2.1533203	70.25747
2.1557617	71.47718
2.1582031	72.44338
2.1606445	73.128746
2.163086	73.51366
2.1655273	73.58676
2.1679688	73.3446
2.1704102	72.79051
2.1728516	71.934425
2.175293	70.79414
2.1777344	69.39537
2.1801758	67.769966
2.1826172	65.95417
2.1850586	63.98723
2.1875	61.910595
2.1899414	59.767353
2.1923828	57.58585
2.1948242	55.44572
2.1972656	53.373993
2.199707	51.41376
2.2021484	49.605984
2.2045898	47.988693
2.2070312	46.59582
2.2094727	45.456116
2.211914	44.592247
2.2143555	44.019722
2.2167969	43.746506
2.2192383	43.77258
2.2216797	44.089798
2.224121	44.682102
2.2265625	45.52614
2.229004	46.592133
2.2314453	47.844776
2.2338867	49.244072
2.2363281	50.7462
2.2387695	52.304825
2.241211	53.872803
2.2436523	55.40404
2.2460938	56.854935
2.2485352	58.185074
2.2509766	59.358368
2.253418	60.34369
2.2558594	61.116093
2.2583008	61.658073
2.2607422	61.960396
2.2631836	62.022163
2.265625	61.85018
2.2680664	61.458008
2.2705078	60.86532
2.2729492	60.078926
2.2753906	59.170715
2.277832	58.157932
2.2802734	57.08102
2.2827148	55.9822
2.2851562	54.903667
2.2875977	53.885242
2.290039	52.963226
2.2924805	52.168537
2.2949219	51.533005
2.2973633	51.083794
2.2998047	50.841805
2.302246	50.82223
2.3046875	51.03491
2.307129	51.483986
2.3095703	52.16747
2.3120117	53.07683
2.3144531	54.197063
2.3168945	55.507313
2.319336	56.982117
2.3217773	58.592934
2.3242188	60.30941
2.3266602	62.099846
2.3291016	63.932133
2.331543	65.77407
2.3339844	67.59427
2.3364258	69.36303
2.3388672	71.053085
2.3413086	72.640205
2.34375	74.10365
2.3461914	75.42673
2.3486328	76.59713
2.3510742	77.607
2.3535156	78.45265
2.355957	79.11292
2.3583984	79.63092
2.3608398	79.99372
2.3632812	80.20961
2.3657227	80.28927
2.368164	80.24396
2.3706055	80.08565
2.3730469	79.82617
2.3754883	79.477
2.3779297	79.04925
2.380371	78.55357
2.3828125	77.99989
2.385254	77.397255
2.3876953	76.75378
2.3901367	76.07651
2.3925781	75.37116
2.3950195	74.64191
2.397461	73.89164
2.3999023	73.12288
2.4023438	72.33884
2.4047852	71.54396
2.4072266	70.74334
2.409668	69.94209
2.4121094	69.1447
2.4145508	68.354996
2.4169922	67.577
2.4194336	66.815956
2.421875	66.07842
2.4243164	65.37149
2.4267578	64.70158
2.4291992	64.073654
2.4316406	63.49095
2.434082	62.955364
2.4365234	62.478493
2.4389648	62.039642
2.4414062	61.65044
2.4438477	61.309834
2.446289	61.01704
2.4487305	60.770325
2.4511719	60.567455
2.4536133	60.406048
2.4560547	60.284008
2.458496	60.20004
2.4609375	60.15401
2.463379	60.14709
2.4658203	60.181667
2.4682617	60.26113
2.4707031	60.38961
2.4731445	60.57181
2.475586	60.81289
2.4780273	61.11845
2.4804688	61.49441
2.4829102	61.946663
2.4853516	62.48065
2.487793	63.100826
2.4902344	63.810234
2.4926758	64.610245
2.4951172	65.50031
2.4975586	66.4778
2.5	67.53765
2.5024414	68.672226
2.5048828	69.87118
2.5073242	71.12164
2.5097656	72.40876
2.512207	73.716385
2.5146484	75.0277
2.5170898	76.31311
2.5195312	77.58018
2.5219727	78.79824
2.524414	79.94978
2.5268555	81.01825
2.5292969	81.98821
2.5317383	82.84589
2.5341797	83.579575
2.536621	84.17994
2.5390625	84.64021
2.541504	84.956085
2.5439453	85.12562
2.5463867	85.148926
2.5488281	85.028
2.5512695	84.76659
2.553711	84.37013
2.5561523	83.84576
2.5585938	83.20193
2.5610352	82.44809
2.5634766	81.59397
2.565918	80.649055
2.5683594	79.622185
2.5708008	78.521194
2.5732422	77.35314
2.5756836	76.125175
2.578125	74.844795
2.5805664	73.51956
2.5830078	72.15674
2.5854492	70.76301
2.5878906	69.34431
2.590332	67.905624
2.5927734	66.45096
2.5952148	64.98357
2.5976562	63.52741
2.6000977	62.043797
2.602539	60.55613
2.6049805	59.06774
2.6074219	57.58244
2.6098633	56.104153
2.6123047	54.636906
2.614746	53.185043
2.6171875	51.75349
2.619629	50.347675
2.6220703	48.973213
2.6245117	47.6358
2.6269531	46.341614
2.6293945	45.097725
2.631836	43.911846
2.6342773	42.791553
2.6367188	41.743305
2.6391602	40.772034
2.6416016	39.880913
2.644043	39.072304
2.6464844	38.34857
2.6489258	37.712116
2.6513672	37.164574
2.6538086	36.705914
2.65625	36.334175
2.6586914	36.04625
2.6611328	35.839245
2.6635742	35.7109
2.6660156	35.659008
2.668457	35.680984
2.6708984	35.77404
2.6733398	35.93567
2.6757812	36.163918
2.6782227	36.457886
2.680664	36.827366
2.6831055	37.24356
2.6855469	37.72089
2.6879883	38.258904
2.6904297	38.8577
2.692871	39.518456
2.6953125	40.243504
2.697754	41.035843
2.7001953	41.898396
2.7026367	42.833405
2.7050781	43.842136
2.7075195	44.924934
2.709961	46.08157
2.7124023	47.311207
2.7148438	48.612022
2.7172852	49.980373
2.7197266	51.41066
2.722168	52.89491
2.7246094	54.42298
2.7270508	55.983086
2.7294922	57.56235
2.7319336	59.146915
2.734375	60.721752
2.7368164	62.270683
2.7392578	63.776752
2.7416992	65.22284
2.7441406	66.59219
2.746582	67.86882
2.7490234	69.03769
2.7514648	70.08494
2.7539062	70.99807
2.7563477	71.765915
2.758789	72.38055
2.7612305	72.82359
2.7636719	73.115746
2.7661133	73.243546
2.7685547	73.208466
2.770996	73.01424
2.7734375	72.66656
2.775879	72.17297
2.7783203	71.54289
2.7807617	70.787544
2.7832031	69.91972
2.7856445	68.95319
2.788086	67.902054
2.7905273	66.78038
2.7929688	65.602066
2.7954102	64.38104
2.7978516	63.130764
2.800293	61.863914
2.8027344	60.59203
2.8051758	59.325333
2.8076172	58.072678
2.8100586	56.841537
2.8125	55.637875
2.8149414	54.46599
2.8173828	53.328377
2.8198242	52.22587
2.8222656	51.158157
2.824707	50.124504
2.8271484	49.124092
2.8295898	48.155964
2.8320312	47.218746
2.8344727	46.310337
2.836914	45.4282
2.8393555	44.569195
2.8417969	43.75465
2.8442383	42.9364
2.8466797	42.13539
2.849121	41.351383
2.8515625	40.585037
2.854004	39.837593
2.8564453	39.11055
2.8588867	38.405502
2.8613281	37.724167
2.8637695	37.068542
2.866211	36.44116
2.8686523	35.845158
2.8710938	35.284092
2.8735352	34.76177
2.8759766	34.281887
2.878418	33.84803
2.8808594	33.46349
2.8833008	33.13113
2.8857422	32.853283
2.8881836	32.631695
2.890625	32.467533
2.8930664	32.361244
2.8955078	32.312286
2.8979492	32.31889
2.9003906	32.378296
2.902832	32.487576
2.9052734	32.644115
2.9077148	32.84534
2.9101562	33.08808
2.9125977	33.368164
2.915039	33.68042
2.9174805	34.01928
2.9199219	34.379665
2.9223633	34.765293
2.9248047	35.15423
2.927246	35.550594
2.9296875	35.95006
2.932129	36.347923
2.9345703	36.73883
2.9370117	37.11711
2.9394531	37.4785
2.9418945	37.82079
2.944336	38.142654
2.9467773	38.44267
2.9492188	38.718895
2.9516602	38.96926
2.9541016	39.192707
2.956543	39.389484
2.9589844	39.560623
2.9614258	39.707344
2.9638672	39.83063
2.9663086	39.931057
2.96875	40.008797
2.9711914	40.063995
2.9736328	40.097214
2.9760742	40.109615
2.9785156	40.102562
2.980957	40.076946
2.9833984	40.03255
2.9858398	39.969345
2.9882812	39.888626
2.9907227	39.79207
2.993164	39.680878
2.9956055	39.556374
2.9980469	39.419144
3.0004883	39.27001
3.0029297	39.11004
3.005371	38.942165
3.0078125	38.76406
3.010254	38.577747
3.0126953	38.38394
3.0151367	38.18312
3.0175781	37.975655
3.0200195	37.762005
3.022461	37.542862
3.0249023	37.319042
3.0273438	37.09135
3.0297852	36.860485
3.0322266	36.626976
3.034668	36.391193
3.0371094	36.15333
3.0395508	35.91343
3.0419922	35.67149
3.0444336	35.427692
3.046875	35.1825
3.0493164	34.93649
3.0517578	34.69004
3.0541992	34.443047
3.0566406	34.194927
3.059082	33.94521
3.0615234	33.694134
3.0639648	33.44269
3.0664062	33.19222
3.0688477	32.943897
3.071289	32.698597
3.0737305	32.456165
3.0761719	32.21665
3.0786133	31.980555
3.0810547	31.74935
3.083496	31.525085
3.0859375	31.310953
3.088379	31.105225
3.0908203	30.911785
3.0932617	30.732126
3.0957031	30.567804
3.0981445	30.420794
3.100586	30.293407
3.1030273	30.187967
3.1054688	30.106613
3.1079102	30.051365
3.1103516	30.024204
3.112793	30.027111
3.1152344	30.061916
3.1176758	30.130163
3.1201172	30.23297
3.1225586	30.370958
3.125	30.544188
3.1274414	30.752108
3.1298828	30.993519
3.1323242	31.266645
3.1347656	31.569292
3.137207	31.898933
3.1396484	32.252415
3.1420898	32.625683
3.1445312	33.014435
3.1469727	33.414803
3.149414	33.822823
3.1518555	34.235016
3.1542969	34.646637
3.1567383	35.052338
3.1591797	35.445976
3.161621	35.82121
3.1640625	36.172215
3.166504	36.497726
3.1689453	36.785484
3.1713867	37.03417
3.1738281	37.239574
3.1762695	37.39764
3.178711	37.504425
3.1811523	37.556286
3.1835938	37.550137
3.1860352	37.48378
3.1884766	37.356018
3.190918	37.16656
3.1933594	36.915855
3.1958008	36.60496
3.1982422	36.235565
3.2006836	35.810085
3.203125	35.331806
3.2055664	34.804874
3.2080078	34.23404
3.2104492	33.624393
3.2128906	32.981155
3.215332	32.30969
3.2177734	31.615776
3.2202148	30.90575
3.2226562	30.1863
3.2250977	29.464094
3.227539	28.745459
3.2299805	28.035675
3.2324219	27.339935
3.2348633	26.662386
3.2373047	26.007483
3.239746	25.379726
3.2421875	24.78321
3.244629	24.221107
3.2470703	23.694717
3.2495117	23.205374
3.2519531	22.753567
3.2543945	22.33872
3.256836	21.9604
3.2592773	21.618082
3.2617188	21.310745
3.2641602	21.03673
3.2666016	20.7937
3.269043	20.578878
3.2714844	20.38924
3.2739258	20.221634
3.2763672	20.07284
3.2788086	19.939613
3.28125	19.818687
3.2836914	19.70685
3.2861328	19.600986
3.2885742	19.498125
3.2910156	19.395493
3.293457	19.29056
3.2958984	19.181103
3.2983398	19.065289
3.3007812	18.941694
3.3032227	18.809223
3.305664	18.667002
3.3081055	18.514122
3.3105469	18.35029
3.3129883	18.175116
3.3154297	17.988878
3.317871	17.7923
3.3203125	17.586304
3.322754	17.371777
3.3251953	17.149494
3.3276367	16.920189
3.3300781	16.684774
3.3325195	16.444075
3.334961	16.19952
3.3374023	15.952281
3.3398438	15.703418
3.3422852	15.453898
3.3447266	15.204609
3.347168	14.956434
3.3496094	14.710203
3.3520508	14.466635
3.3544922	14.226376
3.3569336	13.990077
3.359375	13.758435
3.3618164	13.532153
3.3642578	13.311835
3.3666992	13.097875
3.3691406	12.890406
3.371582	12.689399
3.3740234	12.494925
3.3764648	12.307325
3.3789062	12.127137
3.3813477	11.954893
3.383789	11.790935
3.3862305	11.635277
3.3886719	11.487619
3.3911133	11.348001
3.3935547	11.216883
3.395996	11.095016
3.3984375	10.983183
3.400879	10.88194
3.4033203	10.791385
3.4057617	10.711091
3.4082031	10.640473
3.4106445	10.582813
3.413086	10.532068
3.4155273	10.491327
3.4179688	10.460976
3.4204102	10.441248
3.4228516	10.432068
3.425293	10.432991
3.4277344	10.443236
3.4301758	10.461957
3.4326172	10.488637
3.4350586	10.523023
3.4375	10.564805
3.4399414	10.613425
3.4423828	10.668125
3.4448242	10.728191
3.4472656	10.793084
3.449707	10.86239
3.4521484	10.935731
3.4545898	11.012676
3.4570312	11.092691
3.4594727	11.175158
3.461914	11.259392
3.4643555	11.344523
3.4667969	11.430125
3.4692383	11.515512
3.4716797	11.600297
3.474121	11.684271
3.4765625	11.767293
3.479004	11.849153
3.4814453	11.929392
3.4838867	12.007193
3.4863281	12.081664
3.4887695	12.152353
3.491211	12.218876
3.4936523	12.281458
3.4960938	12.339711
3.4985352	12.393344
3.5009766	12.441622
3.503418	12.483605
3.5058594	12.518957
3.5083008	12.547725
3.5107422	12.56999
3.5131836	12.5857
3.515625	12.594589
3.5180664	12.596233
3.5205078	12.590374
3.5229492	12.577108
3.5253906	12.556663
3.527832	12.529087
3.5302734	12.494239
3.5327148	12.452363
3.5351562	12.404168
3.5375977	12.350562
3.540039	12.292447
3.5424805	12.230529
3.5449219	12.165118
3.5473633	12.096643
3.5498047	12.025744
3.552246	11.953559
3.5546875	11.881369
3.557129	11.810386
3.5595703	11.741608
3.5620117	11.675711
3.5644531	11.612988
3.5668945	11.553623
3.569336	11.498163
3.5717773	11.447471
3.5742188	11.402244
3.5766602	11.362715
3.5791016	11.329197
3.581543	11.301792
3.5839844	11.280406
3.5864258	11.264775
3.5888672	11.254494
3.5913086	11.249023
3.59375	11.247697
3.5961914	11.249751
3.5986328	11.254338
3.6010742	11.260562
3.6035156	11.267493
3.605957	11.274171
3.6083984	11.279605
3.6108398	11.28273
3.6132812	11.282304
3.6157227	11.276766
3.618164	11.264527
3.6206055	11.244552
3.6230469	11.216168
3.6254883	11.179166
3.6279297	11.133048
3.630371	11.077199
3.6328125	11.01051
3.635254	10.931773
3.6376953	10.840678
3.6401367	10.737604
3.6425781	10.623183
3.6450195	10.498053
3.647461	10.362678
3.6499023	10.217262
3.6523438	10.061902
3.6547852	9.898776
3.6572266	9.725792
3.659668	9.5454235
3.6621094	9.35905
3.6645508	9.16809
3.6669922	8.973848
3.6694336	8.777367
3.671875	8.57937
3.6743164	8.380893
3.6767578	8.18356
3.6791992	7.9891324
3.6816406	7.79926
3.684082	7.6153793
3.6865234	7.438537
3.6889648	7.268984
3.6914062	7.1081166
3.6938477	6.9574733
3.696289	6.8183856
3.6987305	6.691744
3.7011719	6.5780277
3.7036133	6.4776783
3.7060547	6.3916044
3.708496	6.320677
3.7109375	6.265621
3.713379	6.2268624
3.7158203	6.204413
3.7182617	6.19797
3.7207031	6.207271
3.7231445	6.2322598
3.725586	6.2729583
3.7280273	6.3292956
3.7304688	6.400962
3.7329102	6.4872966
3.7353516	6.589204
3.737793	6.7013426
3.7402344	6.8248243
3.7426758	6.9583774
3.7451172	7.100842
3.7475586	7.25108
3.75	7.4078264
3.7524414	7.5695324
3.7548828	7.73425
3.7573242	7.9000735
3.7597656	8.065541
3.762207	8.229393
3.7646484	8.390359
3.7670898	8.547047
3.7695312	8.697841
3.7719727	8.8408165
3.774414	8.974069
3.7768555	9.096234
3.7792969	9.206252
3.7817383	9.303396
3.7841797	9.386754
3.786621	9.455443
3.7890625	9.50853
3.791504	9.545088
3.7939453	9.56442
3.7963867	9.566203
3.7988281	9.550385
3.8012695	9.51703
3.803711	9.466234
3.8061523	9.398146
3.8085938	9.31313
3.8110352	9.211851
3.8134766	9.095115
3.815918	8.962428
3.8183594	8.817501
3.8208008	8.66004
3.8232422	8.491169
3.8256836	8.3120775
3.828125	8.123989
3.8305664	7.92816
3.8330078	7.7259107
3.8354492	7.5186205
3.8378906	7.3077016
3.840332	7.0945625
3.8427734	6.8805747
3.8452148	6.667037
3.8476562	6.455138
3.8500977	6.24591
3.852539	6.040261
3.8549805	5.8390255
3.8574219	5.643074
3.8598633	5.4531913
3.8623047	5.2702184
3.864746	5.094648
3.8671875	4.9268584
3.869629	4.7671328
3.8720703	4.6157312
3.8745117	4.472879
3.8769531	4.3386955
3.8793945	4.2131
3.881836	4.095749
3.8842773	3.9862144
3.8867188	3.8841918
3.8891602	3.7894914
3.8916016	3.701933
3.894043	3.6212947
3.8964844	3.5498967
3.8989258	3.481998
3.9013672	3.419667
3.9038086	3.3623319
3.90625	3.3093925
3.9086914	3.2603006
3.9111328	3.2145984
3.9135742	3.1718924
3.9160156	3.1318004
3.918457	3.0939047
3.9208984	3.057742
3.9233398	3.022847
3.9257812	2.9888282
3.9282227	2.9554112
3.930664	2.922423
3.9331055	2.8897352
3.9355469	2.8572357
3.9379883	2.8247893
3.9404297	2.792318
3.942871	2.7596893
3.9453125	2.7267892
3.947754	2.6934984
3.9501953	2.6597176
3.9526367	2.6254401
3.9550781	2.5907722
3.9575195	2.555875
3.959961	2.5208943
3.9624023	2.4858966
3.9648438	2.450849
3.9672852	2.4157794
3.9697266	2.380854
3.972168	2.3463018
3.9746094	2.312337
3.9770508	2.2790954
3.9794922	2.2465823
3.9819336	2.2147484
3.984375	2.1836128
3.9868164	2.153203
3.9892578	2.1236448
3.9916992	2.0950732
3.9941406	2.0675786
3.996582	2.041184
3.9990234	2.015849
4.001465	1.9915195
4.0039062	1.9681724
4.0063477	1.9458127
4.008789	1.9244248
4.0112305	1.9038265
4.013672	1.8836792
4.0161133	1.8639083
4.0185547	1.8445927
4.020996	1.8257354
4.0234375	1.8073279
4.025879	1.7893003
4.0283203	1.7715074
4.0307617	1.7537467
4.033203	1.7358327
4.0356445	1.7176516
4.038086	1.6991283
4.0405273	1.680165
4.0429688	1.6606169
4.04541	1.640351
4.0478516	1.6193049
4.050293	1.5974756
4.0527344	1.574866
4.055176	1.551429
4.057617	1.5270319
4.0600586	1.5018522
4.0625	1.4754156
4.0649414	1.4479245
4.067383	1.41946
4.069824	1.3901217
4.0722656	1.359993
4.074707	1.3291241
4.0771484	1.297537
4.07959	1.2652628
4.0820312	1.2323782
4.0844727	1.1989956
4.086914	1.1652321
4.0893555	1.1311688
4.091797	1.0968589
4.0942383	1.0623732
4.0966797	1.0278823
4.099121	0.99352354
4.1015625	0.95942974
4.104004	0.9256996
4.1064453	0.8924131
4.1088867	0.85966396
4.111328	0.82756764
4.1137695	0.79624313
4.116211	0.7657937
4.1186523	0.7362956
4.1210938	0.7077959
4.123535	0.68032694
4.1259766	0.65391016
4.128418	0.6285579
4.1308594	0.60426974
4.133301	0.58105487
4.135742	0.55894107
4.1381836	0.5379661
4.140625	0.5184794
4.1430664	0.49985218
4.145508	0.48238027
4.147949	0.4660417
4.1503906	0.45078334
4.152832	0.43652463
4.1552734	0.42318696
4.157715	0.41071743
4.1601562	0.39907855
4.1625977	0.3882302
4.165039	0.3781222
4.1674805	0.36869222
4.169922	0.3598748
4.1723633	0.35160983
4.1748047	0.34384128
4.177246	0.3365311
4.1796875	0.3296291
4.182129	0.32308593
4.1845703	0.31684747
4.1870117	0.3108573
4.189453	0.30506214
4.1918945	0.2994176
4.194336	0.29388908
4.1967773	0.28844735
4.1992188	0.28306127
4.20166	0.2776965
4.2041016	0.2723231
4.206543	0.26692754
4.2089844	0.26151243
4.211426	0.2560884
4.213867	0.25066566
4.2163086	0.24524768
4.21875	0.23982869
4.2211914	0.23448443
4.223633	0.22902222
4.226074	0.22354619
4.2285156	0.21806273
4.230957	0.21258675
4.2333984	0.20713517
4.23584	0.2017226
4.2382812	0.19636004
4.2407227	0.1910552
4.243164	0.18581463
4.2456055	0.18064488
4.248047	0.17555627
4.2504883	0.17056273
4.2529297	0.16567767
4.255371	0.16092128
4.2578125	0.1563045
4.260254	0.1518365
4.2626953	0.14751913
4.2651367	0.14333977
4.267578	0.13928887
4.2700195	0.13537294
4.272461	0.13160181
4.2749023	0.12798354
4.2773438	0.12452179
4.279785	0.12121473
4.2822266	0.11805309
4.284668	0.11502332
4.2871094	0.11211548
4.289551	0.10932414
4.291992	0.10664366
4.2944336	0.10406697
4.296875	0.10158804
4.2993164	0.09920365
4.301758	0.09691254
4.304199	0.09477248
4.3066406	0.09264991
4.309082	0.09060314
4.3115234	0.08862203
4.313965	0.08669367
4.3164062	0.08480784
4.3188477	0.08295934
4.321289	0.081145085
4.3237305	0.07936007
4.326172	0.07759739
4.3286133	0.07585161
4.3310547	0.0741204
4.333496	0.07240842
4.3359375	0.07071806
4.338379	0.069051646
4.3408203	0.06740874
4.3432617	0.06578543
4.345703	0.06417406
4.3481445	0.06256452
4.350586	0.060952235
4.3530273	0.05933987
4.3554688	0.057730787
4.35791	0.056127068
4.3603516	0.054529928
4.362793	0.052941237
4.3652344	0.051362973
4.367676	0.049795378
4.370117	0.04823671
4.3725586	0.046686973
4.375	0.04514931
4.3774414	0.043628324
4.379883	0.04212846
4.382324	0.040652916
4.3847656	0.03920831
4.387207	0.03777812
4.3896484	0.036372602
4.39209	0.03498891
4.3945312	0.033626772
4.3969727	0.032288074
4.399414	0.030973908
4.4018555	0.02968438
4.404297	0.028420458
4.4067383	0.02718451
4.4091797	0.025979435
4.411621	0.024809655
4.4140625	0.023677634
4.416504	0.022584803
4.4189453	0.021529794
4.4213867	0.020506978
4.423828	0.019512461
4.4262695	0.018548079
4.428711	0.01761738
4.4311523	0.016723294
4.4335938	0.015866984
4.436035	0.015047591
4.4384766	0.014262832
4.440918	0.013511292
4.4433594	0.012793344
4.445801	0.01211009
4.448242	0.011462049
4.4506836	0.010848242
4.453125	0.010265062
4.4555664	0.009708771
4.458008	0.009179779
4.460449	0.008679096
4.4628906	0.008206115
4.465332	0.007760798
4.4677734	0.0073369485
4.470215	0.0069349958
4.4726562	0.006554712
4.4750977	0.0061958823
4.477539	0.005857475
4.4799805	0.005537571
4.482422	0.00523454
4.4848633	0.0049477634
4.4873047	0.0046773874
4.489746	0.0044236607
4.4921875	0.004186698
4.494629	0.0039656144
4.4970703	0.0037585825
4.4995117	0.0035629256
4.501953	0.0033764986
4.5043945	0.0031987284
4.506836	0.003029828
4.5092773	0.0028699213
4.5117188	0.0027186298
4.51416	0.0025751013
4.5166016	0.0024383427
4.519043	0.0023077528
4.5214844	0.0021831247
4.523926	0.0020643403
4.526367	0.0019512108
4.5288086	0.0018435644
4.53125	0.0017413327
4.5336914	0.001644519
4.536133	0.0015530629
4.538574	0.0014667306
4.5410156	0.0013850615
4.543457	0.0013075742
4.5458984	0.0012349003
4.54834	0.0011652879
4.5507812	0.0010996253
4.5532227	0.0010378448
4.555664	9.794945E-4
4.5581055	9.2420034E-4
4.560547	8.719425E-4
4.5629883	8.227584E-4
4.5654297	7.7668106E-4
4.567871	7.337087E-4
4.5703125	6.938553E-4
4.572754	6.570601E-4
4.5751953	6.23199E-4
4.5776367	5.9191027E-4
4.580078	5.6235347E-4
4.5825195	5.343581E-4
4.584961	5.080343E-4
4.5874023	4.835189E-4
4.5898438	4.6090942E-4
4.592285	4.402245E-4
4.5947266	4.213775E-4
4.597168	4.040967E-4
4.5996094	3.8788773E-4
4.602051	3.7248808E-4
4.604492	3.579413E-4
4.6069336	3.4436435E-4
4.609375	3.3184077E-4
4.6118164	3.2038454E-4
4.614258	3.0989925E-4
4.616699	3.0010942E-4
4.6191406	2.9072468E-4
4.621582	2.8175415E-4
4.6240234	2.7330127E-4
4.626465	2.6544183E-4
4.6289062	2.5845648E-4
4.6313477	2.515851E-4
4.633789	2.4522326E-4
4.6362305	2.3911045E-4
4.638672	2.3319441E-4
4.6411133	2.275547E-4
4.6435547	2.222449E-4
4.645996	2.1728086E-4
4.6484375	2.1262298E-4
4.650879	2.0812871E-4
4.6533203	2.0378936E-4
4.6557617	1.9963899E-4
4.658203	1.9570165E-4
4.6606445	1.9197335E-4
4.663086	1.8841743E-4
4.6655273	1.8499633E-4
4.6679688	1.8170127E-4
4.67041	1.7853841E-4
4.6728516	1.7549904E-4
4.675293	1.725533E-4
4.6777344	1.6967185E-4
4.680176	1.6685203E-4
4.682617	1.6410048E-4
4.6850586	1.6142523E-4
4.6875	1.5882873E-4
4.6899414	1.5630382E-4
4.692383	1.538408E-4
4.694824	1.5142423E-4
4.6972656	1.4903567E-4
4.699707	1.4666135E-4
4.7021484	1.443015E-4
4.70459	1.4195834E-4
4.7070312	1.3963427E-4
4.7094727	1.3736358E-4
4.711914	1.3506488E-4
4.7143555	1.3276868E-4
4.716797	1.304777E-4
4.7192383	1.2819876E-4
4.7216797	1.2593943E-4
4.724121	1.237077E-4
4.7265625	1.2150353E-4
4.729004	1.1932151E-4
4.7314453	1.171546E-4
4.7338867	1.1500492E-4
4.736328	1.1287511E-4
4.7387695	1.1076562E-4
4.741211	1.0867457E-4
4.7436523	1.065961E-4
4.7460938	1.0453028E-4
4.748535	1.0247637E-4
4.7509766	1.0043565E-4
4.753418	9.8414144E-5
4.7558594	9.642066E-5
4.758301	9.446191E-5
4.760742	9.254319E-5
4.7631836	9.066277E-5
4.765625	8.881079E-5
4.7680664	8.698224E-5
4.770508	8.518198E-5
4.772949	8.3415216E-5
4.7753906	8.167781E-5
4.777832	7.9970945E-5
4.7802734	7.829612E-5
4.782715	7.665648E-5
4.7851562	7.5049764E-5
4.7875977	7.3464485E-5
4.790039	7.192176E-5
4.7924805	7.039189E-5
4.794922	6.8888534E-5
4.7973633	6.74155E-5
4.7998047	6.597495E-5
4.802246	6.45644E-5
4.8046875	6.31792E-5
4.807129	6.1818304E-5
4.8095703	6.0482627E-5
4.8120117	5.917299E-5
4.814453	5.788978E-5
4.8168945	5.663256E-5
4.819336	5.53993E-5
4.8217773	5.4190634E-5
4.8242188	5.3005577E-5
4.82666	5.1844152E-5
4.8291016	5.0704246E-5
4.831543	4.9579667E-5
4.8339844	4.8472586E-5
4.836426	4.7381545E-5
4.838867	4.630948E-5
4.8413086	4.5255965E-5
4.84375	4.4222616E-5
4.8461914	4.321079E-5
4.848633	4.222004E-5
4.851074	4.1251184E-5
4.8535156	4.0302548E-5
4.855957	3.9372568E-5
4.8583984	3.8455502E-5
4.86084	3.755049E-5
4.8632812	3.6657435E-5
4.8657227	3.5779743E-5
4.868164	3.4919572E-5
4.8706055	3.409992E-5
4.873047	3.3279106E-5
4.8754883	3.247972E-5
4.8779297	3.1701977E-5
4.880371	3.0946525E-5
4.8828125	3.0212212E-5
4.885254	2.9488008E-5
4.8876953	2.8776098E-5
4.8901367	2.8078299E-5
4.892578	2.7397264E-5
4.8950195	2.673534E-5
4.897461	2.6093738E-5
4.8999023	2.547069E-5
4.9023438	2.4865301E-5
4.904785	2.4275138E-5
4.9072266	2.3701567E-5
4.909668	2.3144148E-5
4.9121094	2.2602522E-5
4.914551	2.2077922E-5
4.916992	2.1573844E-5
4.9194336	2.1088175E-5
4.921875	2.0620822E-5
4.9243164	2.0169238E-5
4.926758	1.9731671E-5
4.929199	1.9308683E-5
4.9316406	1.8899827E-5
4.934082	1.8505923E-5
4.9365234	1.8130384E-5
4.938965	1.7770664E-5
4.9414062	1.7425411E-5
4.9438477	1.7098153E-5
4.946289	1.6786658E-5
4.9487305	1.648656E-5
4.951172	1.6202344E-5
4.9536133	1.5938045E-5
4.9560547	1.568182E-5
4.958496	1.543784E-5
4.9609375	1.5208113E-5
4.963379	1.4987943E-5
4.9658203	1.4779407E-5
4.9682617	1.4581647E-5
4.970703	1.4395343E-5
4.9731445	1.422216E-5
4.975586	1.406234E-5
4.9780273	1.3912851E-5
4.9804688	1.3776201E-5
4.98291	1.36471E-5
4.9853516	1.3527228E-5
4.987793	1.3416396E-5
4.9902344	1.3312985E-5
4.992676	1.3219288E-5
4.995117	1.3131855E-5
4.9975586	1.30559E-5


